Time (s),Channel 1 (V)
0,-0.032390327
0.000625,-0.038332153
0.00125,-0.02413779
0.001875,-0.025458196
0.0025,-0.02413779
0.003125,-0.02413779
0.00375,-0.031400022
0.004375,-0.029749515
0.005,-0.026118399
0.005625,-0.013574543
0.00625,-0.000370484
0.006875,-0.002351093
0.0075,-0.005982209
0.008125,-0.008292919
0.00875,-0.006642412
0.009375,-0.00631231
0.01,0.004581038
0.010625,0.010522865
0.01125,0.010192763
0.011875,0.016464691
0.0125,0.012503474
0.013125,0.006561647
0.01375,0.001610125
0.014375,-0.007632716
0.015,-0.002351093
0.015625,0.002930531
0.01625,0.004581038
0.016875,-0.00631231
0.0175,-0.007632716
0.018125,0.009862662
0.01875,0.029008548
0.019375,0.039901896
0.02,0.037591186
0.020625,0.03627078
0.02125,0.035280476
0.021875,0.01613459
0.0225,0.008212155
0.023125,0.001610125
0.02375,-0.010933731
0.024375,-0.016875557
0.025,-0.020506674
0.025625,-0.016215354
0.02625,-0.014234746
0.026875,-0.006972513
0.0275,-0.003671498
0.028125,0.008872358
0.02875,0.021746315
0.029375,0.031649359
0.03,0.032639664
0.030625,0.02273662
0.03125,0.017454996
0.031875,0.027027939
0.0325,0.034290171
0.033125,0.034290171
0.03375,0.020425909
0.034375,0.01382388
0.035,0.012503474
0.035625,0.021416214
0.03625,0.018775402
0.036875,0.013163677
0.0375,0.009862662
0.038125,0.014153981
0.03875,0.021416214
0.039375,0.029998852
0.04,0.017454996
0.040625,0.003590734
0.04125,-0.010603629
0.041875,0.000289719
0.0425,0.011183068
0.043125,0.005241241
0.04375,-0.002351093
0.044375,-0.010933731
0.045,-0.006972513
0.045625,-0.003341397
0.04625,0.000289719
0.046875,0.006231546
0.0475,-0.013574543
0.048125,-0.019186268
0.04875,-0.013574543
0.049375,-0.010603629
0.05,-0.01753576
0.050625,-0.023807688
0.05125,-0.009283223
0.051875,-0.003341397
0.0525,0.00722185
0.053125,0.024387127
0.05375,0.030989156
0.054375,0.030659055
0.055,0.024057025
0.055625,0.023396822
0.05625,0.019435605
0.056875,0.00722185
0.0575,0.022076417
0.058125,0.043533012
0.05875,0.05409626
0.059375,0.037261084
0.06,0.03858149
0.060625,0.041882505
0.06125,0.048814636
0.061875,0.059707985
0.0625,0.04518352
0.063125,0.028018243
0.06375,0.012833575
0.064375,0.004250937
0.065,0.017785097
0.065625,0.017785097
0.06625,0.021746315
0.066875,0.017454996
0.0675,0.02273662
0.068125,0.041882505
0.06875,0.024387127
0.069375,0.005901444
0.07,-0.003341397
0.070625,-0.009943426
0.07125,-0.023477587
0.071875,-0.041303066
0.0725,-0.033380631
0.073125,-0.030079616
0.07375,-0.030409718
0.074375,-0.01522505
0.075,-0.00169089
0.075625,0.020756011
0.07625,0.008212155
0.076875,-0.01753576
0.0775,-0.040312762
0.078125,-0.039982661
0.07875,-0.027108703
0.079375,-0.01291434
0.08,-0.0040016
0.080625,-0.00169089
0.08125,-0.00169089
0.081875,-0.004991904
0.0825,-0.01522505
0.083125,-0.015555151
0.08375,-0.025128094
0.084375,-0.017205659
0.085,0.009862662
0.085625,0.031979461
0.08625,0.031979461
0.086875,0.020095808
0.0875,0.004250937
0.088125,-0.008292919
0.08875,-0.013244441
0.089375,-0.013574543
0.09,0.000289719
0.090625,0.01382388
0.09125,0.000619821
0.091875,-0.005322006
0.0925,0.004581038
0.093125,0.023066721
0.09375,0.028678446
0.094375,0.024717228
0.095,0.014153981
0.095625,0.000289719
0.09625,0.010852966
0.096875,0.028348345
0.0975,0.034290171
0.098125,0.030989156
0.09875,0.025377431
0.099375,0.008542256
0.1,0.005901444
0.100625,0.02273662
0.10125,0.054756462
0.101875,0.075222754
0.1025,0.077863566
0.103125,0.059707985
0.10375,0.044193215
0.104375,0.039241693
0.105,0.042872809
0.105625,0.050795245
0.10625,0.056076868
0.106875,0.051785549
0.1075,0.058057477
0.108125,0.057727376
0.10875,0.059707985
0.109375,0.059047782
0.11,0.067960521
0.110625,0.065649811
0.11125,0.068950826
0.111875,0.068290623
0.1125,0.065979913
0.113125,0.064989608
0.11375,0.055746767
0.114375,0.041882505
0.115,0.048814636
0.115625,0.055086564
0.11625,0.066310014
0.116875,0.055086564
0.1175,0.041882505
0.118125,0.037591186
0.11875,0.028018243
0.119375,0.022076417
0.12,0.014153981
0.120625,0.020095808
0.12125,0.040892201
0.121875,0.060698289
0.1225,0.062348796
0.123125,0.052115651
0.12375,0.040562099
0.124375,0.030659055
0.125,0.030659055
0.125625,0.042542708
0.12625,0.043202911
0.126875,0.050465143
0.1275,0.050795245
0.128125,0.050135042
0.12875,0.041552404
0.129375,0.046173824
0.13,0.060038086
0.130625,0.06763042
0.13125,0.074562551
0.131875,0.080174276
0.1325,0.080834479
0.133125,0.076213058
0.13375,0.072581942
0.134375,0.07885387
0.135,0.074562551
0.135625,0.071261536
0.13625,0.071591638
0.136875,0.06994113
0.1375,0.067300318
0.138125,0.070271232
0.13875,0.078193667
0.139375,0.083805392
0.14,0.080174276
0.140625,0.076213058
0.14125,0.074232449
0.141875,0.077863566
0.1425,0.068620724
0.143125,0.057727376
0.14375,0.060698289
0.144375,0.052775854
0.145,0.042542708
0.145625,0.030328953
0.14625,0.035940678
0.146875,0.044193215
0.1475,0.039571795
0.148125,0.040892201
0.14875,0.042212606
0.149375,0.042872809
0.15,0.047824332
0.150625,0.050135042
0.15125,0.04749423
0.151875,0.029998852
0.1525,0.024387127
0.153125,0.014484083
0.15375,0.005901444
0.154375,0.015474387
0.155,0.026367736
0.155625,0.037261084
0.15625,0.03858149
0.156875,0.046173824
0.1575,0.045513621
0.158125,0.042212606
0.15875,0.048814636
0.159375,0.042542708
0.16,0.039241693
0.160625,0.036930983
0.16125,0.033299867
0.161875,0.032969765
0.1625,0.040892201
0.163125,0.048484534
0.16375,0.041222302
0.164375,0.032969765
0.165,0.035280476
0.165625,0.029998852
0.16625,0.024387127
0.166875,0.016794793
0.1675,0.028018243
0.168125,0.037261084
0.16875,0.027688142
0.169375,0.024387127
0.17,0.026037634
0.170625,0.030659055
0.17125,0.02735804
0.171875,0.012173372
0.1725,0.015474387
0.173125,0.010522865
0.17375,-0.004661803
0.174375,-0.014894949
0.175,-0.015885253
0.175625,-0.021827079
0.17625,-0.042623472
0.176875,-0.038332153
0.1775,-0.035691341
0.178125,-0.040642863
0.17875,-0.041633168
0.179375,-0.04427398
0.18,-0.045264284
0.180625,-0.059788749
0.18125,-0.060779053
0.181875,-0.056487734
0.1825,-0.045264284
0.183125,-0.035691341
0.18375,-0.040312762
0.184375,-0.042953574
0.185,-0.044604081
0.185625,-0.053846922
0.18625,-0.058468343
0.186875,-0.047574994
0.1875,-0.038002052
0.188125,-0.037011747
0.18875,-0.037011747
0.189375,-0.036021443
0.19,-0.037341849
0.190625,-0.021496978
0.19125,-0.009283223
0.191875,-0.003011295
0.1925,0.000949922
0.193125,0.009532561
0.19375,0.018115199
0.194375,0.017124894
0.195,0.021416214
0.195625,0.017454996
0.19625,0.014153981
0.196875,0.011843271
0.1975,0.020095808
0.198125,0.035940678
0.19875,0.031979461
0.199375,0.033299867
0.2,0.024057025
0.200625,0.009862662
0.20125,0.012503474
0.201875,0.024387127
0.2025,0.025707533
0.203125,0.025377431
0.20375,0.019435605
0.204375,0.012173372
0.205,0.009532561
0.205625,0.011513169
0.20625,0.008212155
0.206875,-0.001030687
0.2075,-0.003011295
0.208125,-0.014894949
0.20875,-0.020506674
0.209375,-0.029749515
0.21,-0.035031138
0.210625,-0.036351544
0.21125,-0.030079616
0.211875,-0.039322458
0.2125,-0.04427398
0.213125,-0.025788297
0.21375,-0.026118399
0.214375,-0.032390327
0.215,-0.033710733
0.215625,-0.045924487
0.21625,-0.035031138
0.216875,-0.035691341
0.2175,-0.031069921
0.218125,-0.032390327
0.21875,-0.035031138
0.219375,-0.02875921
0.22,-0.023147485
0.220625,-0.010933731
0.22125,-0.00631231
0.221875,-0.013244441
0.2225,-0.021166877
0.223125,-0.036021443
0.22375,-0.03536124
0.224375,-0.021496978
0.225,-0.012584238
0.225625,-0.003341397
0.22625,-0.005652107
0.226875,-0.012584238
0.2275,-0.02413779
0.228125,-0.036021443
0.22875,-0.032720428
0.229375,-0.018195963
0.23,0.017785097
0.230625,0.02735804
0.23125,0.025707533
0.231875,0.025377431
0.2325,0.012833575
0.233125,-4.04E-05
0.23375,-0.014234746
0.234375,-0.021496978
0.235,-0.030409718
0.235625,-0.022817384
0.23625,-0.00631231
0.236875,0.000619821
0.2375,-0.014894949
0.238125,-0.030409718
0.23875,-0.038662255
0.239375,-0.044604081
0.24,-0.041633168
0.240625,-0.034040834
0.24125,-0.032060225
0.241875,-0.022817384
0.2425,-0.030079616
0.243125,-0.03536124
0.24375,-0.025788297
0.244375,-0.031400022
0.245,-0.040972965
0.245625,-0.048235197
0.24625,-0.052526517
0.246875,-0.064080068
0.2475,-0.072992808
0.248125,-0.067711184
0.24875,-0.078604533
0.249375,-0.094779505
0.25,-0.105012651
0.250625,-0.087517273
0.25125,-0.058138242
0.251875,-0.051536212
0.2525,-0.040972965
0.253125,-0.039652559
0.25375,-0.054177024
0.254375,-0.063419865
0.255,-0.070682098
0.255625,-0.066060677
0.25625,-0.058138242
0.256875,-0.06011885
0.2575,-0.072332605
0.258125,-0.084546359
0.25875,-0.072992808
0.259375,-0.067050981
0.26,-0.066390778
0.260625,-0.070682098
0.26125,-0.063419865
0.261875,-0.040312762
0.2625,-0.020176572
0.263125,-0.000700585
0.26375,0.021416214
0.264375,0.018775402
0.265,0.006231546
0.265625,0.013163677
0.26625,0.03396007
0.266875,0.030989156
0.2675,0.057067173
0.268125,0.081494682
0.26875,0.117475742
0.269375,0.147184875
0.27,0.169301674
0.270625,0.203632227
0.27125,0.22442862
0.271875,0.236972476
0.2725,0.243904607
0.273125,0.253807651
0.27375,0.274934145
0.274375,0.31190551
0.275,0.348216673
0.275625,0.369013065
0.27625,0.378586008
0.276875,0.400702807
0.2775,0.429421635
0.278125,0.440975187
0.27875,0.45516955
0.279375,0.472664928
0.28,0.483558277
0.280625,0.489500103
0.28125,0.501053655
0.281875,0.503364365
0.2825,0.482237871
0.283125,0.465402696
0.28375,0.458800666
0.284375,0.462761884
0.285,0.46408229
0.285625,0.467713406
0.28625,0.47299503
0.286875,0.478936856
0.2875,0.459130768
0.288125,0.404333923
0.28875,0.360430427
0.289375,0.345575861
0.29,0.327750381
0.290625,0.30497338
0.29125,0.286487697
0.291875,0.286157596
0.2925,0.264701
0.293125,0.23796278
0.29375,0.210564358
0.294375,0.175903703
0.295,0.15048589
0.295625,0.114834931
0.29625,0.073572246
0.296875,0.064989608
0.2975,0.06102839
0.298125,0.059377883
0.29875,0.040562099
0.299375,0.015804489
0.3,-0.014564847
0.300625,-0.033710733
0.30125,-0.034040834
0.301875,-0.027768906
0.3025,-0.030079616
0.303125,-0.052196415
0.30375,-0.072332605
0.304375,-0.081245345
0.305,-0.098410621
0.305625,-0.115245797
0.30625,-0.138022798
0.306875,-0.128779957
0.3075,-0.103692245
0.308125,-0.109964173
0.30875,-0.107983564
0.309375,-0.12283813
0.31,-0.122508029
0.310625,-0.117226405
0.31125,-0.117226405
0.311875,-0.119537116
0.3125,-0.12052742
0.313125,-0.113595289
0.31375,-0.120857522
0.314375,-0.133071276
0.315,-0.113925391
0.315625,-0.110954477
0.31625,-0.120857522
0.316875,-0.132080972
0.3175,-0.128779957
0.318125,-0.135381986
0.31875,-0.1383529
0.319375,-0.130430464
0.32,-0.111944782
0.320625,-0.093459099
0.32125,-0.101051433
0.321875,-0.119867217
0.3225,-0.12283813
0.323125,-0.122508029
0.32375,-0.133401378
0.324375,-0.14066361
0.325,-0.141653914
0.325625,-0.139343204
0.32625,-0.135712088
0.326875,-0.136372291
0.3275,-0.1383529
0.328125,-0.122508029
0.32875,-0.124488638
0.329375,-0.139013103
0.33,-0.155188075
0.330625,-0.164100815
0.33125,-0.157828887
0.331875,-0.157498785
0.3325,-0.173013554
0.333125,-0.182256396
0.33375,-0.187207918
0.334375,-0.169052337
0.335,-0.144954929
0.335625,-0.12944016
0.33625,-0.130430464
0.336875,-0.150236553
0.3375,-0.174994163
0.338125,-0.184567106
0.33875,-0.17202325
0.339375,-0.149906451
0.34,-0.134391682
0.340625,-0.117226405
0.34125,-0.105672854
0.341875,-0.103692245
0.3425,-0.119537116
0.343125,-0.131090667
0.34375,-0.129770261
0.344375,-0.125809044
0.345,-0.110294274
0.345625,-0.106002955
0.34625,-0.108973869
0.346875,-0.097420317
0.3475,-0.079924939
0.348125,-0.065070373
0.34875,-0.062099459
0.349375,-0.06672088
0.35,-0.075963721
0.350625,-0.082565751
0.35125,-0.076293823
0.351875,-0.072332605
0.3525,-0.068371387
0.353125,-0.07563362
0.35375,-0.072662706
0.354375,-0.080915243
0.355,-0.092468795
0.355625,-0.096430013
0.35625,-0.094779505
0.356875,-0.08916778
0.3575,-0.080585142
0.358125,-0.082565751
0.35875,-0.094779505
0.359375,-0.110954477
0.36,-0.109634071
0.360625,-0.110624376
0.36125,-0.109964173
0.361875,-0.109964173
0.3625,-0.107653463
0.363125,-0.105342752
0.36375,-0.110954477
0.364375,-0.114255492
0.365,-0.115905999
0.365625,-0.116236101
0.36625,-0.116566202
0.366875,-0.133071276
0.3675,-0.138683001
0.368125,-0.137692697
0.36875,-0.135381986
0.369375,-0.134391682
0.37,-0.110294274
0.370625,-0.096430013
0.37125,-0.100721332
0.371875,-0.091808592
0.3725,-0.078604533
0.373125,-0.072002503
0.37375,-0.062429561
0.374375,-0.068041286
0.375,-0.081575446
0.375625,-0.092138693
0.37625,-0.098410621
0.376875,-0.081575446
0.3775,-0.054837227
0.378125,-0.024797993
0.37875,-0.010603629
0.379375,-0.008623021
0.38,-0.008292919
0.380625,-0.015885253
0.38125,-0.018526065
0.381875,-0.010603629
0.3825,-0.007632716
0.383125,-0.009613325
0.38375,-0.015555151
0.384375,-0.013574543
0.385,-0.019846471
0.385625,-0.019846471
0.38625,-0.017865862
0.386875,-0.016545456
0.3875,-0.028429109
0.388125,-0.053186719
0.38875,-0.059788749
0.389375,-0.058798445
0.39,-0.062429561
0.390625,-0.054177024
0.39125,-0.06441017
0.391875,-0.070021895
0.3925,-0.079594837
0.393125,-0.078934634
0.39375,-0.060779053
0.394375,-0.054177024
0.395,-0.036021443
0.395625,-0.029419413
0.39625,-0.039982661
0.396875,-0.048235197
0.3975,-0.050876009
0.398125,-0.045594386
0.39875,-0.042293371
0.399375,-0.04427398
0.4,-0.051206111
0.400625,-0.04427398
0.40125,-0.020176572
0.401875,-0.007632716
0.4025,-4.04E-05
0.403125,0.000289719
0.40375,-0.004991904
0.404375,-0.009283223
0.405,-0.012254137
0.405625,-0.010273528
0.40625,0.000949922
0.406875,0.017785097
0.4075,0.021746315
0.408125,0.005241241
0.40875,-0.012584238
0.409375,-0.021496978
0.41,-0.0264485
0.410625,-0.02875921
0.41125,-0.034370935
0.411875,-0.036681646
0.4125,-0.028429109
0.413125,-0.019186268
0.41375,-0.024467891
0.414375,-0.042953574
0.415,-0.056817836
0.415625,-0.064080068
0.41625,-0.058798445
0.416875,-0.053186719
0.4175,-0.047574994
0.418125,-0.034040834
0.41875,-0.026778602
0.419375,-0.024797993
0.42,-0.024797993
0.420625,-0.028429109
0.42125,-0.040642863
0.421875,-0.049225502
0.4225,-0.041633168
0.423125,-0.038332153
0.42375,-0.031730124
0.424375,-0.030739819
0.425,-0.023807688
0.425625,-0.017205659
0.42625,-4.04E-05
0.426875,-0.012254137
0.4275,-0.013244441
0.428125,-0.010603629
0.42875,-4.04E-05
0.429375,0.008542256
0.43,-0.000700585
0.430625,-0.015555151
0.43125,-0.034040834
0.431875,-0.040642863
0.4325,-0.042623472
0.433125,-0.040972965
0.43375,-0.036351544
0.434375,-0.038662255
0.435,-0.041303066
0.435625,-0.051866314
0.43625,-0.059128546
0.436875,-0.062099459
0.4375,-0.055167328
0.438125,-0.060779053
0.43875,-0.068371387
0.439375,-0.061439256
0.44,-0.065070373
0.440625,-0.072662706
0.44125,-0.082235649
0.441875,-0.086526968
0.4425,-0.077614229
0.443125,-0.072662706
0.44375,-0.062099459
0.444375,-0.058468343
0.445,-0.05780814
0.445625,-0.062759662
0.44625,-0.054177024
0.446875,-0.052856618
0.4475,-0.05549743
0.448125,-0.064740271
0.44875,-0.063749967
0.449375,-0.062759662
0.45,-0.061769358
0.450625,-0.06903159
0.45125,-0.06011885
0.451875,-0.042953574
0.4525,-0.036351544
0.453125,-0.030739819
0.45375,-0.016875557
0.454375,-0.020176572
0.455,-0.044934183
0.455625,-0.05549743
0.45625,-0.040642863
0.456875,-0.040972965
0.4575,-0.036681646
0.458125,-0.031069921
0.45875,-0.017865862
0.459375,-0.029749515
0.46,-0.044604081
0.460625,-0.045264284
0.46125,-0.043613777
0.461875,-0.026778602
0.4625,-0.022817384
0.463125,-0.041633168
0.46375,-0.042953574
0.464375,-0.030739819
0.465,-0.008623021
0.465625,0.007551952
0.46625,0.006891749
0.466875,-0.008953122
0.4675,-0.01753576
0.468125,-0.017205659
0.46875,-0.024797993
0.469375,-0.019516369
0.47,-0.010603629
0.470625,-4.04E-05
0.47125,0.001610125
0.471875,-0.005982209
0.4725,-0.011924035
0.473125,-0.017205659
0.47375,-0.023807688
0.474375,-0.022487282
0.475,-0.019846471
0.475625,-0.010933731
0.47625,-0.009613325
0.476875,0.000289719
0.4775,0.003920835
0.478125,-0.002351093
0.47875,-0.000700585
0.479375,0.005571343
0.48,0.017785097
0.480625,0.028678446
0.48125,0.020425909
0.481875,0.009862662
0.4825,0.001940227
0.483125,-0.000370484
0.48375,-0.004991904
0.484375,-0.003341397
0.485,-0.002681194
0.485625,-0.000700585
0.48625,0.010852966
0.486875,0.022406518
0.4875,0.017785097
0.488125,0.010522865
0.48875,0.004250937
0.489375,0.010522865
0.49,0.005901444
0.490625,-0.002351093
0.49125,-0.016875557
0.491875,-0.018526065
0.4925,-0.000700585
0.493125,0.016794793
0.49375,0.02504733
0.494375,0.0184453
0.495,0.01613459
0.495625,0.011843271
0.49625,0.008212155
0.496875,0.004581038
0.4975,-0.008292919
0.498125,-0.018526065
0.49875,-0.022157181
0.499375,-0.027768906
0.5,-0.015555151
0.500625,-0.012584238
0.50125,-0.004331701
0.501875,0.000289719
0.5025,0.003920835
0.503125,0.003590734
0.50375,0.006891749
0.504375,0.00491114
0.505,0.001610125
0.505625,-0.002681194
0.50625,-0.008953122
0.506875,-0.02413779
0.5075,-0.025128094
0.508125,-0.017205659
0.50875,-0.006972513
0.509375,-0.011593934
0.51,-0.026118399
0.510625,-0.042623472
0.51125,-0.063089764
0.511875,-0.061109155
0.5125,-0.044604081
0.513125,-0.009613325
0.51375,0.005241241
0.514375,0.00260043
0.515,0.018775402
0.515625,0.020095808
0.51625,-0.000700585
0.516875,-0.018526065
0.5175,-0.030739819
0.518125,-0.021166877
0.51875,-0.011593934
0.519375,-0.011593934
0.52,-0.025458196
0.520625,-0.022157181
0.52125,-0.020836775
0.521875,-0.028099007
0.5225,-0.027438805
0.523125,-0.015885253
0.52375,-0.020176572
0.524375,-0.006642412
0.525,0.00260043
0.525625,0.006231546
0.52625,0.00260043
0.526875,-0.002351093
0.5275,-0.012254137
0.528125,-0.020836775
0.52875,-0.026778602
0.529375,-0.027108703
0.53,-0.026118399
0.530625,-0.02413779
0.53125,-0.025788297
0.531875,-0.016545456
0.5325,-0.003011295
0.533125,0.001280024
0.53375,-0.002681194
0.534375,0.004250937
0.535,0.008542256
0.535625,0.007882053
0.53625,0.00491114
0.536875,-0.001030687
0.5375,-0.001360788
0.538125,-0.004331701
0.53875,-0.00169089
0.539375,0.01613459
0.54,0.021416214
0.540625,0.021746315
0.54125,0.028018243
0.541875,0.035280476
0.5425,0.04518352
0.543125,0.037591186
0.54375,0.033299867
0.544375,0.029998852
0.545,0.031319258
0.545625,0.024057025
0.54625,0.026697837
0.546875,0.025707533
0.5475,0.010852966
0.548125,-0.0040016
0.54875,-0.00169089
0.549375,0.00722185
0.55,0.01382388
0.550625,0.014153981
0.55125,0.020095808
0.551875,0.021746315
0.5525,0.023066721
0.553125,0.01613459
0.55375,0.008542256
0.554375,-4.04E-05
0.555,-0.012584238
0.555625,-0.017865862
0.55625,-0.016875557
0.556875,-0.022817384
0.5575,-0.017865862
0.558125,-0.018526065
0.55875,-0.010273528
0.559375,-0.013904644
0.56,-0.025788297
0.560625,-0.009283223
0.56125,0.019435605
0.561875,0.032639664
0.5625,0.024387127
0.563125,0.015474387
0.56375,0.011513169
0.564375,0.006231546
0.565,0.003920835
0.565625,0.012173372
0.56625,0.006561647
0.566875,-0.003011295
0.5675,-0.010273528
0.568125,0.008872358
0.56875,0.023396822
0.569375,0.029008548
0.57,0.020756011
0.570625,0.012503474
0.57125,-0.006642412
0.571875,-0.019846471
0.5725,-0.017865862
0.573125,-0.009943426
0.57375,0.000619821
0.574375,-0.003011295
0.575,-0.003671498
0.575625,0.011513169
0.57625,0.019105503
0.576875,0.029998852
0.5775,0.023726924
0.578125,0.013163677
0.57875,0.006561647
0.579375,0.002270328
0.58,0.003920835
0.580625,0.000949922
0.58125,-0.000700585
0.581875,0.002270328
0.5825,-0.00631231
0.583125,-0.009943426
0.58375,-0.008292919
0.584375,-0.006642412
0.585,-0.002681194
0.585625,0.000949922
0.58625,0.00722185
0.586875,0.018775402
0.5875,0.025377431
0.588125,0.034290171
0.58875,0.041882505
0.589375,0.037261084
0.59,0.025707533
0.590625,0.012503474
0.59125,0.004581038
0.591875,0.014814184
0.5925,0.024057025
0.593125,0.014814184
0.59375,0.006561647
0.594375,-0.010273528
0.595,-0.015555151
0.595625,-0.011593934
0.59625,-0.004331701
0.596875,0.006561647
0.5975,0.013493778
0.598125,0.015144286
0.59875,0.015144286
0.599375,0.007882053
0.6,0.005571343
0.600625,-0.005322006
0.60125,0.006891749
0.601875,0.01613459
0.6025,0.027688142
0.603125,0.027688142
0.60375,0.016794793
0.604375,0.013493778
0.605,0.010522865
0.605625,0.008212155
0.60625,0.015804489
0.606875,0.012503474
0.6075,0.014153981
0.608125,0.028678446
0.60875,0.050135042
0.609375,0.057397274
0.61,0.038911592
0.610625,0.029338649
0.61125,0.023066721
0.611875,0.027027939
0.6125,0.028018243
0.613125,0.039241693
0.61375,0.048484534
0.614375,0.042542708
0.615,0.044523317
0.615625,0.042212606
0.61625,0.034620273
0.616875,0.021416214
0.6175,0.009862662
0.618125,0.023726924
0.61875,0.032309562
0.619375,0.020095808
0.62,0.013493778
0.620625,0.016464691
0.62125,0.030328953
0.621875,0.034290171
0.6225,0.024387127
0.623125,0.019435605
0.62375,0.009862662
0.624375,0.015144286
0.625,0.02966875
0.625625,0.03858149
0.62625,0.023726924
0.626875,0.019435605
0.6275,0.013163677
0.628125,0.007882053
0.62875,0.009532561
0.629375,0.014484083
0.63,0.024057025
0.630625,0.026037634
0.63125,0.016794793
0.631875,0.02273662
0.6325,0.032969765
0.633125,0.045843723
0.63375,0.031979461
0.634375,0.013493778
0.635,0.011513169
0.635625,0.01613459
0.63625,0.028018243
0.636875,0.034290171
0.6375,0.039901896
0.638125,0.02273662
0.63875,0.009532561
0.639375,0.017124894
0.64,0.014484083
0.640625,0.012173372
0.64125,0.011513169
0.641875,0.010522865
0.6425,0.009532561
0.643125,0.005571343
0.64375,0.008872358
0.644375,0.002930531
0.645,0.004250937
0.645625,0.000619821
0.64625,0.003920835
0.646875,0.008212155
0.6475,-0.004331701
0.648125,-0.014894949
0.64875,0.001280024
0.649375,0.022076417
0.65,0.033299867
0.650625,0.023726924
0.65125,0.025377431
0.651875,0.025707533
0.6525,0.021746315
0.653125,0.020756011
0.65375,0.022076417
0.654375,0.022076417
0.655,0.010522865
0.655625,0.003920835
0.65625,0.008542256
0.656875,-0.000700585
0.6575,-0.004661803
0.658125,-0.009283223
0.65875,-0.007302615
0.659375,-0.013904644
0.66,-0.014894949
0.660625,-0.006972513
0.66125,-0.006972513
0.661875,-0.016545456
0.6625,-0.024797993
0.663125,-0.01522505
0.66375,-0.015555151
0.664375,-0.020176572
0.665,-0.0264485
0.665625,-0.038992356
0.66625,-0.050215806
0.666875,-0.044604081
0.6675,-0.041963269
0.668125,-0.03305053
0.66875,-0.038662255
0.669375,-0.038002052
0.67,-0.032390327
0.670625,-0.030739819
0.67125,-0.045924487
0.671875,-0.064740271
0.6725,-0.065400474
0.673125,-0.053516821
0.67375,-0.053186719
0.674375,-0.04658469
0.675,-0.031069921
0.675625,-0.010273528
0.67625,-0.014564847
0.676875,-0.022157181
0.6775,-0.019516369
0.678125,-0.017865862
0.67875,-0.015555151
0.679375,-0.008292919
0.68,0.001280024
0.680625,0.010192763
0.68125,0.008872358
0.681875,0.012173372
0.6825,0.014153981
0.683125,0.013493778
0.68375,0.005901444
0.684375,0.007551952
0.685,0.013493778
0.685625,0.012833575
0.68625,0.010522865
0.686875,0.003590734
0.6875,0.008872358
0.688125,0.012173372
0.68875,0.014484083
0.689375,0.018115199
0.69,0.000949922
0.690625,-0.011593934
0.69125,-0.012584238
0.691875,-0.007632716
0.6925,-0.000700585
0.693125,-0.000370484
0.69375,0.006561647
0.694375,0.001610125
0.695,-0.00631231
0.695625,-0.021496978
0.69625,-0.027768906
0.696875,-0.022487282
0.6975,-0.032060225
0.698125,-0.049225502
0.69875,-0.046254589
0.699375,-0.038332153
0.7,-0.023477587
0.700625,-0.018526065
0.70125,-0.012254137
0.701875,-0.014234746
0.7025,-0.014234746
0.703125,-0.014564847
0.70375,-0.019186268
0.704375,-0.015555151
0.705,-0.009943426
0.705625,-0.011593934
0.70625,-0.004991904
0.706875,-0.004661803
0.7075,0.00491114
0.708125,0.009532561
0.70875,0.017124894
0.709375,0.023396822
0.71,0.030328953
0.710625,0.026037634
0.71125,0.022406518
0.711875,0.02735804
0.7125,0.015144286
0.713125,0.005241241
0.71375,0.015804489
0.714375,0.024057025
0.715,0.029008548
0.715625,0.02273662
0.71625,0.003590734
0.716875,0.000289719
0.7175,0.012173372
0.718125,0.017454996
0.71875,0.009202459
0.719375,-0.000370484
0.72,-0.006642412
0.720625,0.011513169
0.72125,0.030989156
0.721875,0.042212606
0.7225,0.033629968
0.723125,0.024057025
0.72375,-0.000700585
0.724375,-0.013574543
0.725,-0.021496978
0.725625,-0.013574543
0.72625,-0.011263832
0.726875,-0.006642412
0.7275,-0.002351093
0.728125,0.006561647
0.72875,0.020425909
0.729375,0.02504733
0.73,0.023396822
0.730625,0.018775402
0.73125,0.01382388
0.731875,0.012833575
0.7325,0.005241241
0.733125,0.000289719
0.73375,-0.001360788
0.734375,0.013163677
0.735,0.027027939
0.735625,0.020095808
0.73625,0.014814184
0.736875,0.006891749
0.7375,0.002270328
0.738125,-0.004991904
0.73875,-0.010603629
0.739375,-0.014894949
0.74,-0.026118399
0.740625,-0.020506674
0.74125,0.003920835
0.741875,0.020756011
0.7425,0.011843271
0.743125,-0.00169089
0.74375,-0.006642412
0.744375,-0.010933731
0.745,-0.011263832
0.745625,-0.01522505
0.74625,-0.011924035
0.746875,-0.004991904
0.7475,-0.027768906
0.748125,-0.053846922
0.74875,-0.05780814
0.749375,-0.047244893
0.75,-0.033380631
0.750625,-0.047574994
0.75125,-0.049555603
0.751875,-0.04658469
0.7525,-0.038992356
0.753125,-0.052856618
0.75375,-0.057478039
0.754375,-0.036021443
0.755,-0.031400022
0.755625,-0.036681646
0.75625,-0.033710733
0.756875,-0.039982661
0.7575,-0.040972965
0.758125,-0.03767195
0.75875,-0.028099007
0.759375,-0.033710733
0.76,-0.050545908
0.760625,-0.058798445
0.76125,-0.057478039
0.761875,-0.053186719
0.7625,-0.054507125
0.763125,-0.050876009
0.76375,-0.051536212
0.764375,-0.059788749
0.765,-0.056157633
0.765625,-0.041963269
0.76625,-0.033380631
0.766875,-0.042293371
0.7675,-0.061109155
0.768125,-0.044934183
0.76875,-0.047244893
0.769375,-0.051536212
0.77,-0.057478039
0.770625,-0.050545908
0.77125,-0.03767195
0.771875,-0.032390327
0.7725,-0.025788297
0.773125,-0.034370935
0.77375,-0.044934183
0.774375,-0.048235197
0.775,-0.055167328
0.775625,-0.041963269
0.77625,-0.039322458
0.776875,-0.029749515
0.7775,-0.031400022
0.778125,-0.039982661
0.77875,-0.037341849
0.779375,-0.031730124
0.78,-0.022817384
0.780625,-0.030409718
0.78125,-0.042953574
0.781875,-0.03767195
0.7825,-0.033380631
0.783125,-0.027768906
0.78375,-0.034701037
0.784375,-0.034370935
0.785,-0.029419413
0.785625,-0.036021443
0.78625,-0.031069921
0.786875,-0.033710733
0.7875,-0.03305053
0.788125,-0.036681646
0.78875,-0.028429109
0.789375,-0.02875921
0.79,-0.041303066
0.790625,-0.058798445
0.79125,-0.067050981
0.791875,-0.062429561
0.7925,-0.046914791
0.793125,-0.041963269
0.79375,-0.042293371
0.794375,-0.0488954
0.795,-0.042623472
0.795625,-0.036351544
0.79625,-0.039322458
0.796875,-0.038662255
0.7975,-0.037341849
0.798125,-0.030739819
0.79875,-0.031069921
0.799375,-0.044934183
0.8,-0.039982661
0.800625,-0.040972965
0.80125,-0.028099007
0.801875,-0.02413779
0.8025,-0.031069921
0.803125,-0.045264284
0.80375,-0.061109155
0.804375,-0.062759662
0.805,-0.06011885
0.805625,-0.062099459
0.80625,-0.050876009
0.806875,-0.047905096
0.8075,-0.048235197
0.808125,-0.056157633
0.80875,-0.052856618
0.809375,-0.048235197
0.81,-0.055167328
0.810625,-0.04658469
0.81125,-0.039982661
0.811875,-0.037011747
0.8125,-0.046914791
0.813125,-0.050215806
0.81375,-0.045924487
0.814375,-0.057147937
0.815,-0.073322909
0.815625,-0.068701489
0.81625,-0.057147937
0.816875,-0.052856618
0.8175,-0.047244893
0.818125,-0.034040834
0.81875,-0.039322458
0.819375,-0.042953574
0.82,-0.053186719
0.820625,-0.049885705
0.82125,-0.040972965
0.821875,-0.052196415
0.8225,-0.063419865
0.823125,-0.063749967
0.82375,-0.065400474
0.824375,-0.064740271
0.825,-0.048565299
0.825625,-0.022157181
0.82625,-0.021166877
0.826875,-0.021827079
0.8275,-0.031069921
0.828125,-0.051206111
0.82875,-0.067050981
0.829375,-0.065730575
0.83,-0.054177024
0.830625,-0.050545908
0.83125,-0.062099459
0.831875,-0.060448952
0.8325,-0.06672088
0.833125,-0.067381083
0.83375,-0.078274431
0.834375,-0.074313214
0.835,-0.066390778
0.835625,-0.06903159
0.83625,-0.069361692
0.836875,-0.063749967
0.8375,-0.049225502
0.838125,-0.045594386
0.83875,-0.054507125
0.839375,-0.040972965
0.84,-0.027438805
0.840625,-0.025128094
0.84125,-0.028429109
0.841875,-0.031069921
0.8425,-0.029749515
0.843125,-0.03767195
0.84375,-0.036681646
0.844375,-0.029749515
0.845,-0.009613325
0.845625,0.00260043
0.84625,0.014153981
0.846875,0.031979461
0.8475,0.049474839
0.848125,0.068290623
0.84875,0.099980364
0.849375,0.108563003
0.85,0.113514525
0.850625,0.118796148
0.85125,0.146854774
0.851875,0.173923094
0.8525,0.192408777
0.853125,0.205282734
0.85375,0.227729635
0.854375,0.245555114
0.855,0.277244856
0.855625,0.307614191
0.85625,0.331051396
0.856875,0.330721294
0.8575,0.34755647
0.858125,0.383207429
0.85875,0.414567069
0.859375,0.434043056
0.86,0.449557825
0.860625,0.474975639
0.86125,0.501713858
0.861875,0.53571431
0.8625,0.556840804
0.863125,0.564433138
0.86375,0.572355573
0.864375,0.577967298
0.865,0.570374964
0.865625,0.556180601
0.86625,0.545617354
0.866875,0.536704614
0.8675,0.527461773
0.868125,0.524820961
0.86875,0.506995481
0.869375,0.485538886
0.87,0.461441478
0.870625,0.450548129
0.87125,0.430742041
0.871875,0.398061995
0.8725,0.374954892
0.873125,0.359770224
0.87375,0.33864373
0.874375,0.310915206
0.875,0.271633131
0.875625,0.241593897
0.87625,0.205612836
0.876875,0.17062208
0.8775,0.128369091
0.878125,0.092057929
0.87875,0.063669202
0.879375,0.035940678
0.88,0.021416214
0.880625,0.014153981
0.88125,-0.007962818
0.881875,-0.017865862
0.8825,-0.025458196
0.883125,-0.047574994
0.88375,-0.072002503
0.884375,-0.083225954
0.885,-0.074973417
0.885625,-0.081905548
0.88625,-0.097420317
0.886875,-0.120857522
0.8875,-0.133401378
0.888125,-0.144294726
0.88875,-0.153867669
0.889375,-0.150236553
0.89,-0.148916147
0.890625,-0.144294726
0.89125,-0.140003407
0.891875,-0.145945234
0.8925,-0.150236553
0.893125,-0.166081423
0.89375,-0.171032946
0.894375,-0.174664062
0.895,-0.164430916
0.895625,-0.155848278
0.89625,-0.158158988
0.896875,-0.164761018
0.8975,-0.169382438
0.898125,-0.171693149
0.89875,-0.162780409
0.899375,-0.154527872
0.9,-0.155848278
0.900625,-0.162450307
0.90125,-0.151556959
0.901875,-0.151226857
0.9025,-0.156178379
0.903125,-0.15848909
0.90375,-0.159809495
0.904375,-0.150236553
0.905,-0.150566654
0.905625,-0.153867669
0.90625,-0.145615132
0.906875,-0.146605437
0.9075,-0.140003407
0.908125,-0.131090667
0.90875,-0.108313666
0.909375,-0.101051433
0.91,-0.107653463
0.910625,-0.112274883
0.91125,-0.125478942
0.911875,-0.135051885
0.9125,-0.14066361
0.913125,-0.145945234
0.91375,-0.141984016
0.914375,-0.133731479
0.915,-0.112604985
0.915625,-0.113265188
0.91625,-0.12712945
0.916875,-0.135712088
0.9175,-0.146605437
0.918125,-0.138022798
0.91875,-0.130430464
0.919375,-0.11821671
0.92,-0.110954477
0.920625,-0.112935086
0.92125,-0.121847826
0.921875,-0.134721783
0.9225,-0.141323813
0.923125,-0.141653914
0.92375,-0.136372291
0.924375,-0.121187623
0.925,-0.124818739
0.925625,-0.12283813
0.92625,-0.120197319
0.926875,-0.117886608
0.9275,-0.103362143
0.928125,-0.096430013
0.92875,-0.091808592
0.929375,-0.097750418
0.93,-0.092138693
0.930625,-0.085206562
0.93125,-0.103362143
0.931875,-0.102371839
0.9325,-0.098410621
0.933125,-0.092138693
0.93375,-0.103692245
0.934375,-0.108973869
0.935,-0.103032042
0.935625,-0.094779505
0.93625,-0.083225954
0.936875,-0.087517273
0.9375,-0.084546359
0.938125,-0.096099911
0.93875,-0.105342752
0.939375,-0.099070824
0.94,-0.103362143
0.940625,-0.095439708
0.94125,-0.067381083
0.941875,-0.066390778
0.9425,-0.071012199
0.943125,-0.090818287
0.94375,-0.092798896
0.944375,-0.097420317
0.945,-0.103032042
0.945625,-0.101381535
0.94625,-0.092138693
0.946875,-0.084876461
0.9475,-0.081905548
0.948125,-0.082235649
0.94875,-0.068041286
0.949375,-0.064080068
0.95,-0.06672088
0.950625,-0.085206562
0.95125,-0.103032042
0.951875,-0.093789201
0.9525,-0.065070373
0.953125,-0.038332153
0.95375,-0.032060225
0.954375,-0.042623472
0.955,-0.050545908
0.955625,-0.062099459
0.95625,-0.064080068
0.956875,-0.071012199
0.9575,-0.07563362
0.958125,-0.082565751
0.95875,-0.084876461
0.959375,-0.091148389
0.96,-0.092798896
0.960625,-0.081245345
0.96125,-0.074643315
0.961875,-0.059458647
0.9625,-0.052856618
0.963125,-0.048565299
0.96375,-0.045264284
0.964375,-0.051206111
0.965,-0.054177024
0.965625,-0.056487734
0.96625,-0.063749967
0.966875,-0.063419865
0.9675,-0.066060677
0.968125,-0.064080068
0.96875,-0.068371387
0.969375,-0.064080068
0.97,-0.058138242
0.970625,-0.053186719
0.97125,-0.05549743
0.971875,-0.056487734
0.9725,-0.060779053
0.973125,-0.063419865
0.97375,-0.082235649
0.974375,-0.081905548
0.975,-0.06441017
0.975625,-0.040642863
0.97625,-0.036351544
0.976875,-0.030409718
0.9775,-0.037341849
0.978125,-0.052196415
0.97875,-0.047244893
0.979375,-0.0488954
0.98,-0.046254589
0.980625,-0.03536124
0.98125,-0.034040834
0.981875,-0.023807688
0.9825,-0.023807688
0.983125,-0.037011747
0.98375,-0.048235197
0.984375,-0.044934183
0.985,-0.035031138
0.985625,-0.037341849
0.98625,-0.034370935
0.986875,-0.030739819
0.9875,-0.0264485
0.988125,-0.028099007
0.98875,-0.02875921
0.989375,-0.021496978
0.99,-0.032390327
0.990625,-0.038002052
0.99125,-0.027768906
0.991875,-0.021166877
0.9925,-0.016875557
0.993125,-0.025458196
0.99375,-0.03305053
0.994375,-0.033710733
0.995,-0.027438805
0.995625,-0.028429109
0.99625,-0.021496978
0.996875,-0.016545456
0.9975,-0.021496978
0.998125,-0.016215354
0.99875,0.000619821
0.999375,0.004581038
1,0.006561647
1.000625,-0.009943426
1.00125,-0.01291434
1.001875,-0.006642412
1.0025,0.008872358
1.003125,0.019435605
1.00375,0.020425909
1.004375,0.019105503
1.005,0.024057025
1.005625,0.025707533
1.00625,0.032969765
1.006875,0.026697837
1.0075,0.027688142
1.008125,0.023396822
1.00875,0.022406518
1.009375,0.012833575
1.01,0.003260633
1.010625,-4.04E-05
1.01125,-0.004661803
1.011875,-0.002681194
1.0125,0.004250937
1.013125,0.022076417
1.01375,0.030989156
1.014375,0.023396822
1.015,0.012173372
1.015625,0.000619821
1.01625,-0.002681194
1.016875,-0.007632716
1.0175,-0.018526065
1.018125,-0.013244441
1.01875,-0.020506674
1.019375,-0.025458196
1.02,-0.036351544
1.020625,-0.034370935
1.02125,-0.030739819
1.021875,-0.03536124
1.0225,-0.031400022
1.023125,-0.028429109
1.02375,-0.03305053
1.024375,-0.034040834
1.025,-0.038332153
1.025625,-0.026118399
1.02625,-0.023477587
1.026875,-0.031069921
1.0275,-0.044604081
1.028125,-0.05549743
1.02875,-0.057478039
1.029375,-0.063419865
1.03,-0.053516821
1.030625,-0.041963269
1.03125,-0.040642863
1.031875,-0.031069921
1.0325,-0.032060225
1.033125,-0.031069921
1.03375,-0.03767195
1.034375,-0.031069921
1.035,-0.0264485
1.035625,-0.032390327
1.03625,-0.042953574
1.036875,-0.053846922
1.0375,-0.052196415
1.038125,-0.050215806
1.03875,-0.048235197
1.039375,-0.041303066
1.04,-0.040972965
1.040625,-0.040972965
1.04125,-0.042623472
1.041875,-0.054507125
1.0425,-0.05549743
1.043125,-0.042953574
1.04375,-0.000370484
1.044375,0.011843271
1.045,-4.04E-05
1.045625,-0.022487282
1.04625,-0.029749515
1.046875,-0.020176572
1.0475,-0.021166877
1.048125,-0.021827079
1.04875,-0.018526065
1.049375,-0.016545456
1.05,-0.00631231
1.050625,-0.001360788
1.05125,0.005901444
1.051875,0.010522865
1.0525,0.004250937
1.053125,0.003590734
1.05375,0.009532561
1.054375,0.013493778
1.055,0.013163677
1.055625,0.009532561
1.05625,0.000289719
1.056875,-0.015885253
1.0575,-0.00631231
1.058125,-0.002351093
1.05875,0.008542256
1.059375,0.019765706
1.06,0.028678446
1.060625,0.029338649
1.06125,0.010852966
1.061875,0.001940227
1.0625,-0.011263832
1.063125,-0.024797993
1.06375,-0.028099007
1.064375,-0.032390327
1.065,-0.021166877
1.065625,-0.010273528
1.06625,-0.013904644
1.066875,-0.017205659
1.0675,-0.025128094
1.068125,-0.022487282
1.06875,-0.014234746
1.069375,-0.009943426
1.07,-0.014234746
1.070625,-0.012254137
1.07125,0.002270328
1.071875,0.025377431
1.0725,0.029998852
1.073125,0.02504733
1.07375,0.01382388
1.074375,-0.000700585
1.075,-0.015885253
1.075625,-0.010603629
1.07625,-0.010933731
1.076875,-0.00631231
1.0775,-0.00631231
1.078125,-0.007302615
1.07875,-0.009613325
1.079375,-0.012584238
1.08,-0.002020991
1.080625,0.016794793
1.08125,-0.000700585
1.081875,-0.009613325
1.0825,-0.005652107
1.083125,-0.00169089
1.08375,-0.013574543
1.084375,-0.019186268
1.085,-0.01291434
1.085625,-0.015885253
1.08625,-0.01753576
1.086875,-0.024797993
1.0875,-0.032720428
1.088125,-0.043613777
1.08875,-0.052526517
1.089375,-0.037011747
1.09,-0.033380631
1.090625,-0.03767195
1.09125,-0.032390327
1.091875,-0.026118399
1.0925,-0.025788297
1.093125,-0.047905096
1.09375,-0.055167328
1.094375,-0.061109155
1.095,-0.070351996
1.095625,-0.072332605
1.09625,-0.068041286
1.096875,-0.061109155
1.0975,-0.065400474
1.098125,-0.072332605
1.09875,-0.071342301
1.099375,-0.06441017
1.1,-0.059128546
1.100625,-0.059458647
1.10125,-0.043943878
1.101875,-0.030739819
1.1025,-0.036351544
1.103125,-0.056157633
1.10375,-0.067711184
1.104375,-0.060448952
1.105,-0.045594386
1.105625,-0.040312762
1.10625,-0.030409718
1.106875,-0.040312762
1.1075,-0.050215806
1.108125,-0.054507125
1.10875,-0.037341849
1.109375,-0.026778602
1.11,-0.024797993
1.110625,-0.025788297
1.11125,-0.032720428
1.111875,-0.021166877
1.1125,-0.010603629
1.113125,-0.010603629
1.11375,-0.008953122
1.114375,-0.016545456
1.115,-0.027108703
1.115625,-0.026778602
1.11625,-0.031730124
1.116875,-0.025458196
1.1175,-0.028429109
1.118125,-0.03536124
1.11875,-0.056157633
1.119375,-0.06011885
1.12,-0.057147937
1.120625,-0.061439256
1.12125,-0.068701489
1.121875,-0.072002503
1.1225,-0.068041286
1.123125,-0.048235197
1.12375,-0.034370935
1.124375,-0.034701037
1.125,-0.040642863
1.125625,-0.048565299
1.12625,-0.076954026
1.126875,-0.078274431
1.1275,-0.051866314
1.128125,-0.027768906
1.12875,-0.025128094
1.129375,-0.040312762
1.13,-0.055167328
1.130625,-0.062099459
1.13125,-0.058798445
1.131875,-0.037341849
1.1325,-0.026118399
1.133125,-0.014564847
1.13375,-0.016215354
1.134375,-0.014234746
1.135,-0.002681194
1.135625,0.009202459
1.13625,0.012833575
1.136875,0.008542256
1.1375,0.007882053
1.138125,0.005571343
1.13875,-0.000700585
1.139375,0.004581038
1.14,-0.004331701
1.140625,-0.014564847
1.14125,-0.010603629
1.141875,-0.001360788
1.1425,0.001940227
1.143125,-0.014894949
1.14375,-0.025128094
1.144375,-0.033710733
1.145,-0.030409718
1.145625,-0.034370935
1.14625,-0.033380631
1.146875,-0.021496978
1.1475,-0.020506674
1.148125,-0.020176572
1.14875,-0.008292919
1.149375,-0.007962818
1.15,-0.019186268
1.150625,-0.036021443
1.15125,-0.037341849
1.151875,-0.031730124
1.1525,-0.027768906
1.153125,-0.037341849
1.15375,-0.041303066
1.154375,-0.029749515
1.155,-0.022157181
1.155625,-0.0264485
1.15625,-0.026778602
1.156875,-0.018195963
1.1575,-0.011263832
1.158125,-0.011593934
1.15875,-0.004991904
1.159375,-0.001360788
1.16,-0.006972513
1.160625,-0.002020991
1.16125,-0.010273528
1.161875,-0.007962818
1.1625,-0.004661803
1.163125,0.010192763
1.16375,0.011843271
1.164375,-4.04E-05
1.165,0.012503474
1.165625,0.032639664
1.16625,0.040562099
1.166875,0.030328953
1.1675,0.010522865
1.168125,0.004581038
1.16875,0.010522865
1.169375,0.0184453
1.17,0.020756011
1.170625,0.014484083
1.17125,0.00260043
1.171875,-0.002020991
1.1725,-0.000370484
1.173125,-0.0040016
1.17375,-0.01291434
1.174375,-0.011263832
1.175,-0.010603629
1.175625,-0.005982209
1.17625,-0.014564847
1.176875,-0.023147485
1.1775,-0.020836775
1.178125,-0.010933731
1.17875,-0.006642412
1.179375,-0.003341397
1.18,-0.002681194
1.180625,-0.005982209
1.18125,-0.013574543
1.181875,-0.015885253
1.1825,-0.016875557
1.183125,-0.011924035
1.18375,-0.008623021
1.184375,-0.001030687
1.185,-0.000700585
1.185625,-0.008623021
1.18625,-0.01753576
1.186875,-0.020836775
1.1875,-0.013244441
1.188125,-0.003011295
1.18875,-0.006972513
1.189375,-0.010933731
1.19,-0.023477587
1.190625,-0.02875921
1.19125,-0.012254137
1.191875,0.00260043
1.1925,0.027027939
1.193125,0.041222302
1.19375,0.037591186
1.194375,0.025377431
1.195,0.008212155
1.195625,-0.00631231
1.19625,-0.008623021
1.196875,-0.007302615
1.1975,-0.006642412
1.198125,-0.007302615
1.19875,-0.000700585
1.199375,-0.003011295
1.2,-0.005982209
1.200625,-0.011924035
1.20125,-0.007632716
1.201875,-0.00169089
1.2025,-0.001360788
1.203125,-0.00631231
1.20375,-0.003341397
1.204375,0.006561647
1.205,0.006891749
1.205625,0.005571343
1.20625,0.014153981
1.206875,0.003920835
1.2075,-0.000700585
1.208125,-0.007962818
1.20875,-0.007962818
1.209375,-0.017205659
1.21,-0.023807688
1.210625,-0.017205659
1.21125,-0.008623021
1.211875,-0.003011295
1.2125,-0.013244441
1.213125,-0.014894949
1.21375,-0.006972513
1.214375,-0.018195963
1.215,-0.026778602
1.215625,-0.017865862
1.21625,-0.008623021
1.216875,-4.04E-05
1.2175,0.001280024
1.218125,0.010192763
1.21875,-0.003011295
1.219375,-0.006972513
1.22,-0.012254137
1.220625,-0.002351093
1.22125,0.01382388
1.221875,0.029998852
1.2225,0.025377431
1.223125,0.005571343
1.22375,-0.011924035
1.224375,-0.003341397
1.225,0.007551952
1.225625,0.009862662
1.22625,-0.004991904
1.226875,-0.01753576
1.2275,-0.005322006
1.228125,0.008872358
1.22875,0.014814184
1.229375,0.020095808
1.23,0.028348345
1.230625,0.026367736
1.23125,0.018115199
1.231875,0.014814184
1.2325,0.00491114
1.233125,-0.000370484
1.23375,-0.007302615
1.234375,-0.004661803
1.235,-0.002020991
1.235625,0.000289719
1.23625,0.013493778
1.236875,0.012503474
1.2375,0.007551952
1.238125,0.002930531
1.23875,-0.009613325
1.239375,-0.009943426
1.24,-0.004331701
1.240625,0.004581038
1.24125,0.009862662
1.241875,-0.003341397
1.2425,-0.027108703
1.243125,-0.0488954
1.24375,-0.050876009
1.244375,-0.044934183
1.245,-0.034701037
1.245625,-0.042953574
1.24625,-0.056157633
1.246875,-0.063089764
1.2475,-0.067381083
1.248125,-0.061769358
1.24875,-0.047574994
1.249375,-0.041303066
1.25,-0.03767195
1.250625,-0.053186719
1.25125,-0.059128546
1.251875,-0.05780814
1.2525,-0.053516821
1.253125,-0.056487734
1.25375,-0.063419865
1.254375,-0.059788749
1.255,-0.059128546
1.255625,-0.056817836
1.25625,-0.036681646
1.256875,-0.033710733
1.2575,-0.042953574
1.258125,-0.053516821
1.25875,-0.042293371
1.259375,-0.044604081
1.26,-0.0488954
1.260625,-0.047574994
1.26125,-0.051206111
1.261875,-0.052196415
1.2625,-0.048235197
1.263125,-0.0488954
1.26375,-0.046254589
1.264375,-0.050876009
1.265,-0.054837227
1.265625,-0.062099459
1.26625,-0.076623924
1.266875,-0.08916778
1.2675,-0.082235649
1.268125,-0.060779053
1.26875,-0.058138242
1.269375,-0.053846922
1.27,-0.05549743
1.270625,-0.053516821
1.27125,-0.067711184
1.271875,-0.05780814
1.2725,-0.04427398
1.273125,-0.047574994
1.27375,-0.06011885
1.274375,-0.065400474
1.275,-0.077284127
1.275625,-0.06903159
1.27625,-0.06903159
1.276875,-0.06011885
1.2775,-0.062429561
1.278125,-0.066390778
1.27875,-0.067381083
1.279375,-0.060448952
1.28,-0.042953574
1.280625,-0.036021443
1.28125,-0.041633168
1.281875,-0.032060225
1.2825,-0.028099007
1.283125,-0.036021443
1.28375,-0.051206111
1.284375,-0.058138242
1.285,-0.058138242
1.285625,-0.052196415
1.28625,-0.040642863
1.286875,-0.041633168
1.2875,-0.045594386
1.288125,-0.04658469
1.28875,-0.046254589
1.289375,-0.035691341
1.29,-0.02875921
1.290625,-0.03767195
1.29125,-0.046914791
1.291875,-0.038332153
1.2925,-0.010273528
1.293125,-0.007302615
1.29375,-0.019186268
1.294375,-0.037011747
1.295,-0.038662255
1.295625,-0.03767195
1.29625,-0.038332153
1.296875,-0.035691341
1.2975,-0.023807688
1.298125,-0.012254137
1.29875,0.002270328
1.299375,0.011183068
1.3,0.017454996
1.300625,-0.004661803
1.30125,-0.021166877
1.301875,-0.038002052
1.3025,-0.030079616
1.303125,-0.021496978
1.30375,-0.013574543
1.304375,-0.011593934
1.305,-0.025788297
1.305625,-0.040312762
1.30625,-0.034370935
1.306875,-0.027108703
1.3075,-0.014564847
1.308125,-0.003341397
1.30875,-0.004661803
1.309375,-0.016545456
1.31,-0.023477587
1.310625,-0.0264485
1.31125,-0.035031138
1.311875,-0.02413779
1.3125,-0.016875557
1.313125,-0.018195963
1.31375,-0.021827079
1.314375,-0.027438805
1.315,-0.025788297
1.315625,-0.016875557
1.31625,-0.008623021
1.316875,-0.014564847
1.3175,-0.018856166
1.318125,-0.005982209
1.31875,-0.00631231
1.319375,-0.00631231
1.32,-0.008623021
1.320625,0.00260043
1.32125,0.002270328
1.321875,-0.011593934
1.3225,-0.003671498
1.323125,0.014484083
1.32375,0.016464691
1.324375,0.003920835
1.325,-0.002351093
1.325625,0.003260633
1.32625,0.014153981
1.326875,0.030989156
1.3275,0.034950374
1.328125,0.019105503
1.32875,0.006891749
1.329375,0.013163677
1.33,0.029338649
1.330625,0.050135042
1.33125,0.057727376
1.331875,0.062348796
1.3325,0.057727376
1.333125,0.053105955
1.33375,0.041882505
1.334375,0.03858149
1.335,0.033629968
1.335625,0.026367736
1.33625,0.022076417
1.336875,0.014153981
1.3375,0.020756011
1.338125,0.028018243
1.33875,0.033299867
1.339375,0.050135042
1.34,0.068620724
1.340625,0.061688593
1.34125,0.045843723
1.341875,0.049144737
1.3425,0.057727376
1.343125,0.053436057
1.34375,0.054756462
1.344375,0.046834027
1.345,0.052115651
1.345625,0.051455448
1.34625,0.049474839
1.346875,0.061358492
1.3475,0.067300318
1.348125,0.067300318
1.34875,0.060368188
1.349375,0.057067173
1.35,0.064989608
1.350625,0.053436057
1.35125,0.05409626
1.351875,0.066970217
1.3525,0.075882957
1.353125,0.082484986
1.35375,0.080504377
1.354375,0.073572246
1.355,0.073902348
1.355625,0.080504377
1.35625,0.083805392
1.356875,0.074232449
1.3575,0.073572246
1.358125,0.059707985
1.35875,0.059047782
1.359375,0.048814636
1.36,0.041552404
1.360625,0.046503926
1.36125,0.052775854
1.361875,0.055086564
1.3625,0.048484534
1.363125,0.053436057
1.36375,0.053105955
1.364375,0.04518352
1.365,0.039901896
1.365625,0.049144737
1.36625,0.056076868
1.366875,0.042212606
1.3675,0.024717228
1.368125,0.040231998
1.36875,0.044523317
1.369375,0.045843723
1.37,0.043202911
1.370625,0.042542708
1.37125,0.039901896
1.371875,0.03396007
1.3725,0.027688142
1.373125,0.026367736
1.37375,0.024387127
1.374375,0.026367736
1.375,0.015144286
1.375625,0.009862662
1.37625,0.006561647
1.376875,0.015804489
1.3775,0.028018243
1.378125,0.026697837
1.37875,0.017454996
1.379375,0.016464691
1.38,0.026697837
1.380625,0.031319258
1.38125,0.026367736
1.381875,0.034620273
1.3825,0.016464691
1.383125,0.003260633
1.38375,-0.009283223
1.384375,-0.002681194
1.385,0.013163677
1.385625,0.013493778
1.38625,0.018775402
1.386875,0.016794793
1.3875,0.006561647
1.388125,-4.04E-05
1.38875,-0.004331701
1.389375,-0.005322006
1.39,-0.008623021
1.390625,-0.018856166
1.39125,-0.02875921
1.391875,-0.024797993
1.3925,-0.012254137
1.393125,-0.003671498
1.39375,-0.004661803
1.394375,-0.00631231
1.395,0.008212155
1.395625,0.013493778
1.39625,0.001280024
1.396875,0.007551952
1.3975,0.002930531
1.398125,-0.014894949
1.39875,-0.011263832
1.399375,-0.008953122
1.4,0.000949922
1.400625,0.010192763
1.40125,0.029338649
1.401875,0.041882505
1.4025,0.045843723
1.403125,0.06102839
1.40375,0.060698289
1.404375,0.047164129
1.405,0.028018243
1.405625,0.013493778
1.40625,0.023726924
1.406875,0.033629968
1.4075,0.048154433
1.408125,0.050135042
1.40875,0.04749423
1.409375,0.040892201
1.41,0.044523317
1.410625,0.053105955
1.41125,0.047164129
1.411875,0.030989156
1.4125,0.031649359
1.413125,0.044523317
1.41375,0.050795245
1.414375,0.037591186
1.415,0.032969765
1.415625,0.041552404
1.41625,0.044853418
1.416875,0.043533012
1.4175,0.040231998
1.418125,0.044523317
1.41875,0.03627078
1.419375,0.03858149
1.42,0.039571795
1.420625,0.048154433
1.42125,0.047164129
1.421875,0.043202911
1.4225,0.036930983
1.423125,0.03858149
1.42375,0.051125346
1.424375,0.060368188
1.425,0.052115651
1.425625,0.057397274
1.42625,0.047824332
1.426875,0.034290171
1.4275,0.029998852
1.428125,0.026697837
1.42875,0.026697837
1.429375,0.028348345
1.43,0.030659055
1.430625,0.026367736
1.43125,0.017124894
1.431875,0.021416214
1.4325,0.02273662
1.433125,0.014814184
1.43375,-0.010603629
1.434375,-0.030409718
1.435,-0.030739819
1.435625,-0.032390327
1.43625,-0.027768906
1.436875,-0.0264485
1.4375,-0.02875921
1.438125,-0.02413779
1.43875,-0.016215354
1.439375,-0.007962818
1.44,-0.01753576
1.440625,-0.02875921
1.44125,-0.02413779
1.441875,-0.007632716
1.4425,0.0184453
1.443125,0.017454996
1.44375,0.009532561
1.444375,0.012173372
1.445,0.024717228
1.445625,0.028348345
1.44625,0.03396007
1.446875,0.039241693
1.4475,0.047824332
1.448125,0.054756462
1.44875,0.069280927
1.449375,0.084795697
1.45,0.109883409
1.450625,0.112854322
1.45125,0.126718584
1.451875,0.135301222
1.4525,0.141903252
1.453125,0.158738427
1.45375,0.182835834
1.454375,0.214525576
1.455,0.233011258
1.455625,0.2422541
1.45625,0.261069884
1.456875,0.271633131
1.4575,0.286487697
1.458125,0.302332568
1.45875,0.319497844
1.459375,0.326099874
1.46,0.338313628
1.460625,0.363071239
1.46125,0.383867632
1.461875,0.410605851
1.4625,0.431072143
1.463125,0.456489956
1.46375,0.473325131
1.464375,0.483558277
1.465,0.507985786
1.465625,0.529442382
1.46625,0.548918369
1.466875,0.558491311
1.4675,0.545287252
1.468125,0.541986238
1.46875,0.53571431
1.469375,0.541986238
1.47,0.547267861
1.470625,0.558821413
1.47125,0.56047192
1.471875,0.544957151
1.4725,0.530432686
1.473125,0.50897609
1.47375,0.473655233
1.474375,0.457810362
1.475,0.442955796
1.475625,0.435363462
1.47625,0.402683416
1.476875,0.374294689
1.4775,0.350197281
1.478125,0.322468758
1.47875,0.285497393
1.479375,0.242584201
1.48,0.211224561
1.480625,0.18646695
1.48125,0.159728731
1.481875,0.132000207
1.4825,0.096349248
1.483125,0.079514073
1.48375,0.071261536
1.484375,0.049474839
1.485,0.020425909
1.485625,-0.00169089
1.48625,-0.013244441
1.486875,-0.024467891
1.4875,-0.027108703
1.488125,-0.036351544
1.48875,-0.056817836
1.489375,-0.065730575
1.49,-0.075303518
1.490625,-0.089497882
1.49125,-0.101711636
1.491875,-0.116236101
1.4925,-0.108313666
1.493125,-0.098410621
1.49375,-0.08916778
1.494375,-0.087517273
1.495,-0.084876461
1.495625,-0.088507577
1.49625,-0.082895852
1.496875,-0.074973417
1.4975,-0.071342301
1.498125,-0.068371387
1.49875,-0.066390778
1.499375,-0.074973417
1.5,-0.083225954
1.500625,-0.090158085
1.50125,-0.089827983
1.501875,-0.097750418
1.5025,-0.105012651
1.503125,-0.109634071
1.50375,-0.107983564
1.504375,-0.103692245
1.505,-0.109964173
1.505625,-0.115245797
1.50625,-0.114255492
1.506875,-0.114585594
1.5075,-0.11161468
1.508125,-0.117886608
1.50875,-0.112274883
1.509375,-0.113265188
1.51,-0.118876913
1.510625,-0.123498333
1.51125,-0.129770261
1.511875,-0.1383529
1.5125,-0.134391682
1.513125,-0.116896304
1.51375,-0.108313666
1.514375,-0.121187623
1.515,-0.121187623
1.515625,-0.12283813
1.51625,-0.12283813
1.516875,-0.115575898
1.5175,-0.128449855
1.518125,-0.127459551
1.51875,-0.129110058
1.519375,-0.127459551
1.52,-0.119207014
1.520625,-0.09808052
1.52125,-0.088507577
1.521875,-0.083225954
1.5225,-0.07794433
1.523125,-0.08025504
1.52375,-0.084876461
1.524375,-0.069361692
1.525,-0.05780814
1.525625,-0.038662255
1.52625,-0.037011747
1.526875,-0.040972965
1.5275,-0.039322458
1.528125,-0.042293371
1.52875,-0.046254589
1.529375,-0.055827531
1.53,-0.064740271
1.530625,-0.06903159
1.53125,-0.075963721
1.531875,-0.062759662
1.5325,-0.058138242
1.533125,-0.064080068
1.53375,-0.073653011
1.534375,-0.067711184
1.535,-0.065730575
1.535625,-0.068701489
1.53625,-0.057478039
1.536875,-0.049555603
1.5375,-0.042953574
1.538125,-0.037011747
1.53875,-0.049225502
1.539375,-0.070682098
1.54,-0.092138693
1.540625,-0.093128998
1.54125,-0.096430013
1.541875,-0.098410621
1.5425,-0.102371839
1.543125,-0.113265188
1.54375,-0.112604985
1.544375,-0.116236101
1.545,-0.115245797
1.545625,-0.121847826
1.54625,-0.128779957
1.546875,-0.121517725
1.5475,-0.114585594
1.548125,-0.110954477
1.54875,-0.118546811
1.549375,-0.122177927
1.55,-0.095109607
1.550625,-0.079594837
1.55125,-0.069361692
1.551875,-0.077284127
1.5525,-0.083225954
1.553125,-0.083886157
1.55375,-0.088837679
1.554375,-0.102041738
1.555,-0.115245797
1.555625,-0.116566202
1.55625,-0.094119302
1.556875,-0.081575446
1.5575,-0.069361692
1.558125,-0.056817836
1.55875,-0.045594386
1.559375,-0.043943878
1.56,-0.037011747
1.560625,-0.02413779
1.56125,-0.023147485
1.561875,-0.0264485
1.5625,-0.025458196
1.563125,-0.021166877
1.56375,-0.021827079
1.564375,-0.031730124
1.565,-0.030739819
1.565625,-0.025128094
1.56625,-0.023477587
1.566875,-0.019846471
1.5675,-0.028099007
1.568125,-0.03305053
1.56875,-0.042623472
1.569375,-0.043613777
1.57,-0.038662255
1.570625,-0.038662255
1.57125,-0.041963269
1.571875,-0.049555603
1.5725,-0.044934183
1.573125,-0.038662255
1.57375,-0.046914791
1.574375,-0.046914791
1.575,-0.049555603
1.575625,-0.046914791
1.57625,-0.047905096
1.576875,-0.043613777
1.5775,-0.041303066
1.578125,-0.039652559
1.57875,-0.038992356
1.579375,-0.042623472
1.58,-0.041633168
1.580625,-0.034370935
1.58125,-0.03536124
1.581875,-0.040972965
1.5825,-0.048235197
1.583125,-0.037011747
1.58375,-0.034701037
1.584375,-0.03767195
1.585,-0.031400022
1.585625,-0.02875921
1.58625,-0.036681646
1.586875,-0.046914791
1.5875,-0.051866314
1.588125,-0.050215806
1.58875,-0.057147937
1.589375,-0.065400474
1.59,-0.071012199
1.590625,-0.076623924
1.59125,-0.084876461
1.591875,-0.086526968
1.5925,-0.068371387
1.593125,-0.06011885
1.59375,-0.052856618
1.594375,-0.058138242
1.595,-0.070682098
1.595625,-0.068701489
1.59625,-0.058138242
1.596875,-0.064080068
1.5975,-0.082895852
1.598125,-0.098740723
1.59875,-0.090158085
1.599375,-0.072662706
1.6,-0.057147937
1.600625,-0.05780814
1.60125,-0.040312762
1.601875,-0.043613777
1.6025,-0.047244893
1.603125,-0.041633168
1.60375,-0.036021443
1.604375,-0.039652559
1.605,-0.039652559
1.605625,-0.035691341
1.60625,-0.035031138
1.606875,-0.053186719
1.6075,-0.063419865
1.608125,-0.059788749
1.60875,-0.054177024
1.609375,-0.053846922
1.61,-0.055167328
1.610625,-0.046254589
1.61125,-0.040972965
1.611875,-0.034370935
1.6125,-0.030409718
1.613125,-0.030409718
1.61375,-0.036681646
1.614375,-0.050876009
1.615,-0.057147937
1.615625,-0.056817836
1.61625,-0.047905096
1.616875,-0.045264284
1.6175,-0.06011885
1.618125,-0.061109155
1.61875,-0.057478039
1.619375,-0.050215806
1.62,-0.051536212
1.620625,-0.043613777
1.62125,-0.051536212
1.621875,-0.050876009
1.6225,-0.045594386
1.623125,-0.047574994
1.62375,-0.04427398
1.624375,-0.030409718
1.625,-0.021496978
1.625625,-0.01522505
1.62625,-0.025788297
1.626875,-0.034040834
1.6275,-0.051536212
1.628125,-0.064740271
1.62875,-0.053516821
1.629375,-0.046914791
1.63,-0.055827531
1.630625,-0.073653011
1.63125,-0.086526968
1.631875,-0.075963721
1.6325,-0.071342301
1.633125,-0.06011885
1.63375,-0.059128546
1.634375,-0.053846922
1.635,-0.051206111
1.635625,-0.04658469
1.63625,-0.036351544
1.636875,-0.042623472
1.6375,-0.047244893
1.638125,-0.047574994
1.63875,-0.03536124
1.639375,-0.023147485
1.64,-0.033380631
1.640625,-0.043943878
1.64125,-0.045264284
1.641875,-0.031400022
1.6425,-0.018856166
1.643125,-0.02413779
1.64375,-0.021827079
1.644375,-0.016215354
1.645,-0.013574543
1.645625,-0.016875557
1.64625,-0.001030687
1.646875,0.00722185
1.6475,0.006891749
1.648125,-0.001030687
1.64875,0.007882053
1.649375,0.009862662
1.65,0.000289719
1.650625,-0.014564847
1.65125,-0.022487282
1.651875,-0.034040834
1.6525,-0.036021443
1.653125,-0.037011747
1.65375,-0.041303066
1.654375,-0.06011885
1.655,-0.07794433
1.655625,-0.07563362
1.65625,-0.058798445
1.656875,-0.052196415
1.6575,-0.056487734
1.658125,-0.070351996
1.65875,-0.069361692
1.659375,-0.074313214
1.66,-0.077614229
1.660625,-0.072662706
1.66125,-0.086526968
1.661875,-0.090158085
1.6625,-0.084876461
1.663125,-0.082235649
1.66375,-0.070682098
1.664375,-0.077614229
1.665,-0.082565751
1.665625,-0.082895852
1.66625,-0.083556055
1.666875,-0.088507577
1.6675,-0.093789201
1.668125,-0.088177476
1.66875,-0.078604533
1.669375,-0.057478039
1.67,-0.052526517
1.670625,-0.063089764
1.67125,-0.076623924
1.671875,-0.083886157
1.6725,-0.082565751
1.673125,-0.085866765
1.67375,-0.08685707
1.674375,-0.07563362
1.675,-0.068041286
1.675625,-0.061439256
1.67625,-0.077614229
1.676875,-0.077614229
1.6775,-0.082895852
1.678125,-0.077284127
1.67875,-0.068701489
1.679375,-0.062429561
1.68,-0.071672402
1.680625,-0.076293823
1.68125,-0.072662706
1.681875,-0.049555603
1.6825,-0.030739819
1.683125,-0.027768906
1.68375,-0.044934183
1.684375,-0.05549743
1.685,-0.056157633
1.685625,-0.05780814
1.68625,-0.056817836
1.686875,-0.052856618
1.6875,-0.047244893
1.688125,-0.041633168
1.68875,-0.04427398
1.689375,-0.032390327
1.69,-0.026118399
1.690625,-0.033380631
1.69125,-0.03767195
1.691875,-0.036021443
1.6925,-0.03305053
1.693125,-0.039652559
1.69375,-0.032060225
1.694375,-0.030739819
1.695,-0.035031138
1.695625,-0.046914791
1.69625,-0.046254589
1.696875,-0.038662255
1.6975,-0.039982661
1.698125,-0.054507125
1.69875,-0.062099459
1.699375,-0.072992808
1.7,-0.084216258
1.700625,-0.094449404
1.70125,-0.074973417
1.701875,-0.054177024
1.7025,-0.040642863
1.703125,-0.042623472
1.70375,-0.042623472
1.704375,-0.0488954
1.705,-0.059788749
1.705625,-0.06011885
1.70625,-0.041633168
1.706875,-0.036681646
1.7075,-0.039652559
1.708125,-0.050215806
1.70875,-0.040972965
1.709375,-0.032060225
1.71,-0.020836775
1.710625,-0.007302615
1.71125,-0.012254137
1.711875,-0.017865862
1.7125,-0.029749515
1.713125,-0.03536124
1.71375,-0.035031138
1.714375,-0.037341849
1.715,-0.029749515
1.715625,-0.025458196
1.71625,-0.03536124
1.716875,-0.036681646
1.7175,-0.038992356
1.718125,-0.034040834
1.71875,-0.034370935
1.719375,-0.039322458
1.72,-0.041963269
1.720625,-0.03767195
1.72125,-0.038002052
1.721875,-0.047574994
1.7225,-0.063089764
1.723125,-0.072332605
1.72375,-0.071342301
1.724375,-0.067711184
1.725,-0.07794433
1.725625,-0.069361692
1.72625,-0.070021895
1.726875,-0.061109155
1.7275,-0.053516821
1.728125,-0.062759662
1.72875,-0.072992808
1.729375,-0.067050981
1.73,-0.049555603
1.730625,-0.031400022
1.73125,-0.040642863
1.731875,-0.035031138
1.7325,-0.0264485
1.733125,-0.024797993
1.73375,-0.029749515
1.734375,-0.015885253
1.735,-0.006972513
1.735625,-0.021827079
1.73625,-0.040312762
1.736875,-0.049555603
1.7375,-0.032390327
1.738125,-0.007962818
1.73875,0.003260633
1.739375,0.003590734
1.74,-0.013574543
1.740625,-0.029419413
1.74125,-0.042293371
1.741875,-0.045594386
1.7425,-0.037341849
1.743125,-0.030409718
1.74375,-0.018856166
1.744375,-0.027438805
1.745,-0.03767195
1.745625,-0.050215806
1.74625,-0.053846922
1.746875,-0.04658469
1.7475,-0.040642863
1.748125,-0.04658469
1.74875,-0.05549743
1.749375,-0.066060677
1.75,-0.059458647
1.750625,-0.067050981
1.75125,-0.05780814
1.751875,-0.055167328
1.7525,-0.064740271
1.753125,-0.072332605
1.75375,-0.073653011
1.754375,-0.068371387
1.755,-0.054177024
1.755625,-0.033380631
1.75625,-0.019846471
1.756875,-0.03536124
1.7575,-0.039322458
1.758125,-0.035031138
1.75875,-0.028099007
1.759375,-0.034701037
1.76,-0.043613777
1.760625,-0.032390327
1.76125,-0.016875557
1.761875,-0.001030687
1.7625,-0.00169089
1.763125,0.000289719
1.76375,0.015474387
1.764375,0.019105503
1.765,0.014153981
1.765625,0.00260043
1.76625,-0.001030687
1.766875,0.002930531
1.7675,0.00491114
1.768125,0.013163677
1.76875,0.012173372
1.769375,0.010192763
1.77,0.015144286
1.770625,0.023726924
1.77125,0.02735804
1.771875,0.020756011
1.7725,0.013493778
1.773125,0.007882053
1.77375,0.005901444
1.774375,0.017124894
1.775,0.011183068
1.775625,0.005241241
1.77625,0.002270328
1.776875,0.010852966
1.7775,0.017785097
1.778125,0.022076417
1.77875,0.019435605
1.779375,0.019765706
1.78,0.023066721
1.780625,0.023066721
1.78125,0.012503474
1.781875,0.017785097
1.7825,0.0184453
1.783125,0.020425909
1.78375,0.02504733
1.784375,0.030328953
1.785,0.035610577
1.785625,0.024387127
1.78625,0.022406518
1.786875,0.025377431
1.7875,0.03858149
1.788125,0.037921287
1.78875,0.036600881
1.789375,0.045513621
1.79,0.031649359
1.790625,0.013493778
1.79125,0.010192763
1.791875,0.014814184
1.7925,0.020425909
1.793125,0.018775402
1.79375,0.029008548
1.794375,0.031649359
1.795,0.035280476
1.795625,0.035940678
1.79625,0.032639664
1.796875,0.031979461
1.7975,0.038251389
1.798125,0.037921287
1.79875,0.048814636
1.799375,0.059047782
1.8,0.054756462
1.800625,0.040562099
1.80125,0.050795245
1.801875,0.046503926
1.8025,0.043533012
1.803125,0.048814636
1.80375,0.050135042
1.804375,0.058057477
1.805,0.069280927
1.805625,0.074892652
1.80625,0.083805392
1.806875,0.081824783
1.8075,0.075552855
1.808125,0.074892652
1.80875,0.081824783
1.809375,0.071591638
1.81,0.06102839
1.810625,0.052115651
1.81125,0.036930983
1.811875,0.038251389
1.8125,0.032639664
1.813125,0.032639664
1.81375,0.050465143
1.814375,0.048154433
1.815,0.04980494
1.815625,0.056737071
1.81625,0.051455448
1.816875,0.058057477
1.8175,0.058387579
1.818125,0.052115651
1.81875,0.039571795
1.819375,0.037261084
1.82,0.031979461
1.820625,0.036930983
1.82125,0.033629968
1.821875,0.02735804
1.8225,0.03396007
1.823125,0.038911592
1.82375,0.031979461
1.824375,0.040892201
1.825,0.050795245
1.825625,0.062018695
1.82625,0.056737071
1.826875,0.062018695
1.8275,0.062678898
1.828125,0.066970217
1.82875,0.070601333
1.829375,0.063669202
1.83,0.06531971
1.830625,0.068620724
1.83125,0.060698289
1.831875,0.070601333
1.8325,0.069611029
1.833125,0.071921739
1.83375,0.073572246
1.834375,0.073242145
1.835,0.066970217
1.835625,0.062348796
1.83625,0.077863566
1.836875,0.083145189
1.8375,0.088756914
1.838125,0.081494682
1.83875,0.067300318
1.839375,0.063669202
1.84,0.061688593
1.840625,0.068950826
1.84125,0.064659507
1.841875,0.065649811
1.8425,0.08116458
1.843125,0.096349248
1.84375,0.118466047
1.844375,0.109223206
1.845,0.093048233
1.845625,0.066970217
1.84625,0.051125346
1.846875,0.052775854
1.8475,0.05640697
1.848125,0.051455448
1.84875,0.052115651
1.849375,0.042872809
1.85,0.041552404
1.850625,0.042542708
1.85125,0.058057477
1.851875,0.05640697
1.8525,0.059047782
1.853125,0.058387579
1.85375,0.051455448
1.854375,0.045843723
1.855,0.047824332
1.855625,0.050795245
1.85625,0.055416665
1.856875,0.042212606
1.8575,0.026037634
1.858125,0.023726924
1.85875,0.02966875
1.859375,0.026367736
1.86,0.023066721
1.860625,0.032309562
1.86125,0.033299867
1.861875,0.03627078
1.8625,0.040892201
1.863125,0.050465143
1.86375,0.070271232
1.864375,0.077863566
1.865,0.073572246
1.865625,0.06102839
1.86625,0.047164129
1.866875,0.041552404
1.8675,0.045843723
1.868125,0.080504377
1.86875,0.082815088
1.869375,0.083145189
1.87,0.080174276
1.870625,0.082815088
1.87125,0.091067625
1.871875,0.084795697
1.8725,0.070271232
1.873125,0.059047782
1.87375,0.052115651
1.874375,0.05871768
1.875,0.063008999
1.875625,0.078523769
1.87625,0.070601333
1.876875,0.059377883
1.8775,0.057067173
1.878125,0.073572246
1.87875,0.071261536
1.879375,0.059707985
1.88,0.05871768
1.880625,0.052115651
1.88125,0.039901896
1.881875,0.046173824
1.8825,0.045513621
1.883125,0.039571795
1.88375,0.026697837
1.884375,0.021416214
1.885,0.028018243
1.885625,0.029338649
1.88625,0.028348345
1.886875,0.020425909
1.8875,0.011843271
1.888125,0.003260633
1.88875,-0.003671498
1.889375,-0.003011295
1.89,-0.005652107
1.890625,0.007882053
1.89125,0.011183068
1.891875,0.013493778
1.8925,0.020756011
1.893125,0.017454996
1.89375,0.026367736
1.894375,0.022406518
1.895,0.014814184
1.895625,0.011513169
1.89625,0.00260043
1.896875,0.003920835
1.8975,0.009532561
1.898125,0.009862662
1.89875,0.016464691
1.899375,0.015144286
1.9,0.019105503
1.900625,0.008212155
1.90125,0.004581038
1.901875,0.006231546
1.9025,0.006561647
1.903125,0.015474387
1.90375,0.018115199
1.904375,0.015474387
1.905,0.011843271
1.905625,0.004250937
1.90625,0.007882053
1.906875,-0.002681194
1.9075,-0.011263832
1.908125,-0.01522505
1.90875,-0.002020991
1.909375,-0.004661803
1.91,-0.007302615
1.910625,0.003590734
1.91125,-0.004331701
1.911875,-0.018856166
1.9125,-0.026778602
1.913125,-0.031069921
1.91375,-0.024467891
1.914375,-0.021166877
1.915,-0.019846471
1.915625,-0.025458196
1.91625,-0.021166877
1.916875,-0.004661803
1.9175,0.013493778
1.918125,0.026697837
1.91875,0.022076417
1.919375,0.018115199
1.92,0.014484083
1.920625,0.01613459
1.92125,0.009862662
1.921875,-0.010933731
1.9225,-0.021166877
1.923125,-0.022487282
1.92375,-0.021496978
1.924375,-0.006642412
1.925,0.013493778
1.925625,0.024387127
1.92625,0.01382388
1.926875,0.014814184
1.9275,0.005241241
1.928125,-0.002351093
1.92875,-0.011593934
1.929375,-0.013904644
1.93,-0.024797993
1.930625,-0.024467891
1.93125,-0.025128094
1.931875,-0.019846471
1.9325,-0.017205659
1.933125,-0.015885253
1.93375,-0.018856166
1.934375,-0.017205659
1.935,-0.020836775
1.935625,-0.025128094
1.93625,-0.017205659
1.936875,-0.012254137
1.9375,-0.010933731
1.938125,-0.020506674
1.93875,-0.034701037
1.939375,-0.03305053
1.94,-0.023477587
1.940625,-0.018856166
1.94125,-0.014894949
1.941875,-0.009283223
1.9425,-0.002351093
1.943125,-0.007632716
1.94375,-0.010273528
1.944375,-0.014564847
1.945,-0.018526065
1.945625,-0.029089312
1.94625,-0.016875557
1.946875,0.010522865
1.9475,0.020425909
1.948125,0.009202459
1.94875,0.003590734
1.949375,-0.009613325
1.95,-0.00169089
1.950625,-0.002681194
1.95125,0.000949922
1.951875,-0.009613325
1.9525,-0.011263832
1.953125,-0.018856166
1.95375,-0.026118399
1.954375,-0.034701037
1.955,-0.052526517
1.955625,-0.056817836
1.95625,-0.045924487
1.956875,-0.04427398
1.9575,-0.040642863
1.958125,-0.042623472
1.95875,-0.035031138
1.959375,-0.030079616
1.96,-0.044604081
1.960625,-0.040972965
1.96125,-0.030409718
1.961875,-0.045264284
1.9625,-0.061769358
1.963125,-0.081905548
1.96375,-0.075963721
1.964375,-0.063089764
1.965,-0.039652559
1.965625,-0.027768906
1.96625,-0.036021443
1.966875,-0.034040834
1.9675,-0.048235197
1.968125,-0.036021443
1.96875,-0.021827079
1.969375,-0.016875557
1.97,-0.020506674
1.970625,-0.013244441
1.97125,-0.011263832
1.971875,-0.018195963
1.9725,-0.01522505
1.973125,-0.016545456
1.97375,-0.029089312
1.974375,-0.026118399
1.975,-0.010603629
1.975625,0.005571343
1.97625,0.007882053
1.976875,-0.00169089
1.9775,-0.0264485
1.978125,-0.038002052
1.97875,-0.039982661
1.979375,-0.028429109
1.98,-0.022817384
1.980625,-0.023147485
1.98125,-0.038992356
1.981875,-0.038992356
1.9825,-0.04658469
1.983125,-0.054837227
1.98375,-0.06903159
1.984375,-0.068701489
1.985,-0.053516821
1.985625,-0.042293371
1.98625,-0.028099007
1.986875,-0.022157181
1.9875,-0.025788297
1.988125,-0.020506674
1.98875,-0.030409718
1.989375,-0.042293371
1.99,-0.046914791
1.990625,-0.045594386
1.99125,-0.035691341
1.991875,-0.022817384
1.9925,-0.019846471
1.993125,-0.02413779
1.99375,-0.018526065
1.994375,-0.012254137
1.995,-0.008292919
1.995625,-0.013904644
1.99625,-0.015885253
1.996875,-0.006972513
1.9975,-0.005322006
1.998125,-0.007962818
1.99875,-0.002020991
1.999375,0.002930531
2,0.003260633
2.000625,-0.005322006
2.00125,0.009202459
2.001875,0.016464691
2.0025,0.017124894
2.003125,0.017124894
2.00375,0.014484083
2.004375,0.010192763
2.005,-0.000370484
2.005625,0.001610125
2.00625,0.007882053
2.006875,0.00491114
2.0075,0.004581038
2.008125,0.003590734
2.00875,0.009202459
2.009375,0.006561647
2.01,0.00491114
2.010625,0.024387127
2.01125,0.035610577
2.011875,0.031649359
2.0125,0.026697837
2.013125,0.019435605
2.01375,0.012173372
2.014375,0.008542256
2.015,0.016794793
2.015625,0.010852966
2.01625,-0.000370484
2.016875,-0.009613325
2.0175,-0.01753576
2.018125,-0.006972513
2.01875,-0.004991904
2.019375,-0.005982209
2.02,-0.012584238
2.020625,-0.007962818
2.02125,-0.005982209
2.021875,-0.004661803
2.0225,0.000619821
2.023125,0.009532561
2.02375,0.005901444
2.024375,0.011513169
2.025,0.008212155
2.025625,0.009532561
2.02625,0.012833575
2.026875,0.031319258
2.0275,0.043533012
2.028125,0.039571795
2.02875,0.044193215
2.029375,0.078193667
2.03,0.111533916
2.030625,0.122097163
2.03125,0.117805844
2.031875,0.125398178
2.0325,0.138602237
2.033125,0.168311369
2.03375,0.194719487
2.034375,0.220467402
2.035,0.247865825
2.035625,0.249846433
2.03625,0.266021406
2.036875,0.296390741
2.0375,0.326099874
2.038125,0.346236064
2.03875,0.362080935
2.039375,0.382877327
2.04,0.393110473
2.040625,0.406644633
2.04125,0.439324679
2.041875,0.464742493
2.0425,0.478276653
2.043125,0.494451625
2.04375,0.520859743
2.044375,0.548258166
2.045,0.572685675
2.045625,0.6007443
2.04625,0.607676431
2.046875,0.590511154
2.0475,0.567404051
2.048125,0.567734153
2.04875,0.568724457
2.049375,0.565423442
2.05,0.561792326
2.050625,0.561132123
2.05125,0.584569328
2.051875,0.59183156
2.0525,0.564433138
2.053125,0.519209236
2.05375,0.489500103
2.054375,0.466723102
2.055,0.433052751
2.055625,0.395091082
2.05625,0.370993674
2.056875,0.353498296
2.0575,0.33864373
2.058125,0.307614191
2.05875,0.273943841
2.059375,0.227729635
2.06,0.180195022
2.060625,0.146194571
2.06125,0.12374767
2.061875,0.101960973
2.0625,0.066970217
2.063125,0.037261084
2.06375,0.005571343
2.064375,-0.023477587
2.065,-0.033710733
2.065625,-0.04658469
2.06625,-0.064740271
2.066875,-0.088177476
2.0675,-0.109634071
2.068125,-0.126469247
2.06875,-0.14297432
2.069375,-0.135051885
2.07,-0.138022798
2.070625,-0.143634523
2.07125,-0.145285031
2.071875,-0.136702392
2.0725,-0.128779957
2.073125,-0.121847826
2.07375,-0.125148841
2.074375,-0.107983564
2.075,-0.101381535
2.075625,-0.089827983
2.07625,-0.105012651
2.076875,-0.118876913
2.0775,-0.118876913
2.078125,-0.108313666
2.07875,-0.096760114
2.079375,-0.084876461
2.08,-0.083225954
2.080625,-0.084216258
2.08125,-0.087847374
2.081875,-0.083886157
2.0825,-0.083225954
2.083125,-0.076293823
2.08375,-0.089497882
2.084375,-0.088837679
2.085,-0.09576981
2.085625,-0.109964173
2.08625,-0.114585594
2.086875,-0.112604985
2.0875,-0.107323361
2.088125,-0.108643767
2.08875,-0.120197319
2.089375,-0.128119754
2.09,-0.135712088
2.090625,-0.150566654
2.09125,-0.170372743
2.091875,-0.178955381
2.0925,-0.171032946
2.093125,-0.160469698
2.09375,-0.147265639
2.094375,-0.145285031
2.095,-0.149906451
2.095625,-0.164430916
2.09625,-0.167401829
2.096875,-0.158819191
2.0975,-0.156178379
2.098125,-0.164100815
2.09875,-0.1607998
2.099375,-0.150566654
2.1,-0.133071276
2.100625,-0.134391682
2.10125,-0.134061581
2.101875,-0.136042189
2.1025,-0.127459551
2.103125,-0.121847826
2.10375,-0.118546811
2.104375,-0.121187623
2.105,-0.129770261
2.105625,-0.127459551
2.10625,-0.123168232
2.106875,-0.132741175
2.1075,-0.135051885
2.108125,-0.133731479
2.10875,-0.12283813
2.109375,-0.122177927
2.11,-0.116566202
2.110625,-0.114915695
2.11125,-0.113925391
2.111875,-0.116566202
2.1125,-0.135712088
2.113125,-0.134061581
2.11375,-0.12283813
2.114375,-0.122508029
2.115,-0.139673306
2.115625,-0.161790104
2.11625,-0.164430916
2.116875,-0.146935538
2.1175,-0.117556507
2.118125,-0.095439708
2.11875,-0.103032042
2.119375,-0.109634071
2.12,-0.121847826
2.120625,-0.124488638
2.12125,-0.131420769
2.121875,-0.145945234
2.1225,-0.147265639
2.123125,-0.139673306
2.12375,-0.132080972
2.124375,-0.124158536
2.125,-0.127789653
2.125625,-0.126139145
2.12625,-0.125809044
2.126875,-0.116566202
2.1275,-0.115905999
2.128125,-0.123498333
2.12875,-0.131090667
2.129375,-0.131090667
2.13,-0.130430464
2.130625,-0.130760566
2.13125,-0.138022798
2.131875,-0.140003407
2.1325,-0.144294726
2.133125,-0.134721783
2.13375,-0.14297432
2.134375,-0.134061581
2.135,-0.115245797
2.135625,-0.119537116
2.13625,-0.126139145
2.136875,-0.130760566
2.1375,-0.12052742
2.138125,-0.126799348
2.13875,-0.137692697
2.139375,-0.12052742
2.14,-0.116896304
2.140625,-0.117226405
2.14125,-0.11161468
2.141875,-0.105672854
2.1425,-0.103362143
2.143125,-0.105342752
2.14375,-0.092798896
2.144375,-0.097420317
2.145,-0.097750418
2.145625,-0.094779505
2.14625,-0.084876461
2.146875,-0.085866765
2.1475,-0.081575446
2.148125,-0.084216258
2.14875,-0.087187171
2.149375,-0.091148389
2.15,-0.09576981
2.150625,-0.103362143
2.15125,-0.094449404
2.151875,-0.087847374
2.1525,-0.087517273
2.153125,-0.082895852
2.15375,-0.074973417
2.154375,-0.081245345
2.155,-0.096430013
2.155625,-0.08916778
2.15625,-0.075963721
2.156875,-0.079924939
2.1575,-0.08025504
2.158125,-0.08685707
2.15875,-0.087187171
2.159375,-0.091808592
2.16,-0.101711636
2.160625,-0.105672854
2.16125,-0.107983564
2.161875,-0.098740723
2.1625,-0.096760114
2.163125,-0.101711636
2.16375,-0.09808052
2.164375,-0.094449404
2.165,-0.096430013
2.165625,-0.099731027
2.16625,-0.088507577
2.166875,-0.084216258
2.1675,-0.085206562
2.168125,-0.073322909
2.16875,-0.078274431
2.169375,-0.085206562
2.17,-0.093789201
2.170625,-0.087517273
2.17125,-0.076293823
2.171875,-0.060448952
2.1725,-0.046254589
2.173125,-0.053186719
2.17375,-0.067050981
2.174375,-0.077614229
2.175,-0.097090215
2.175625,-0.101051433
2.17625,-0.096099911
2.176875,-0.084216258
2.1775,-0.076293823
2.178125,-0.063419865
2.17875,-0.052856618
2.179375,-0.03536124
2.18,-0.025458196
2.180625,-0.039322458
2.18125,-0.061769358
2.181875,-0.063089764
2.1825,-0.079594837
2.183125,-0.099731027
2.18375,-0.110294274
2.184375,-0.112935086
2.185,-0.115905999
2.185625,-0.108643767
2.18625,-0.083886157
2.186875,-0.070351996
2.1875,-0.077614229
2.188125,-0.094449404
2.18875,-0.103692245
2.189375,-0.093789201
2.19,-0.094119302
2.190625,-0.093128998
2.19125,-0.087517273
2.191875,-0.102371839
2.1925,-0.111944782
2.193125,-0.114915695
2.19375,-0.11821671
2.194375,-0.110294274
2.195,-0.104022346
2.195625,-0.106002955
2.19625,-0.098410621
2.196875,-0.090488186
2.1975,-0.10039123
2.198125,-0.101381535
2.19875,-0.080585142
2.199375,-0.069361692
2.2,-0.054837227
2.200625,-0.047905096
2.20125,-0.031730124
2.201875,-0.01522505
2.2025,-0.013244441
2.203125,-0.019186268
2.20375,-0.036021443
2.204375,-0.040642863
2.205,-0.027108703
2.205625,-0.030079616
2.20625,-0.026778602
2.206875,-0.031730124
2.2075,-0.030739819
2.208125,-0.040642863
2.20875,-0.037011747
2.209375,-0.034040834
2.21,-0.031400022
2.210625,-0.023807688
2.21125,-0.013904644
2.211875,-0.011593934
2.2125,-0.031730124
2.213125,-0.047244893
2.21375,-0.039982661
2.214375,-0.038992356
2.215,-0.038992356
2.215625,-0.043613777
2.21625,-0.045594386
2.216875,-0.048565299
2.2175,-0.058798445
2.218125,-0.053186719
2.21875,-0.054177024
2.219375,-0.05549743
2.22,-0.045264284
2.220625,-0.037011747
2.22125,-0.050876009
2.221875,-0.068701489
2.2225,-0.071342301
2.223125,-0.058468343
2.22375,-0.052526517
2.224375,-0.045594386
2.225,-0.042953574
2.225625,-0.033380631
2.22625,-0.032060225
2.226875,-0.027438805
2.2275,-0.028099007
2.228125,-0.023147485
2.22875,-0.014564847
2.229375,-0.01291434
2.23,-0.013904644
2.230625,-0.014894949
2.23125,-0.01753576
2.231875,-0.003671498
2.2325,0.000289719
2.233125,-0.004331701
2.23375,-0.015555151
2.234375,-0.013904644
2.235,-0.006972513
2.235625,-0.015555151
2.23625,-0.030079616
2.236875,-0.02875921
2.2375,0.000949922
2.238125,0.021746315
2.23875,0.02735804
2.239375,0.038251389
2.24,0.033629968
2.240625,0.032309562
2.24125,0.039241693
2.241875,0.023726924
2.2425,0.016464691
2.243125,0.005241241
2.24375,0.016464691
2.244375,0.024387127
2.245,0.037261084
2.245625,0.040892201
2.24625,0.043863114
2.246875,0.041222302
2.2475,0.035940678
2.248125,0.02735804
2.24875,0.027688142
2.249375,0.03396007
2.25,0.03396007
2.250625,0.022076417
2.25125,0.019435605
2.251875,0.021746315
2.2525,0.016464691
2.253125,0.011513169
2.25375,0.017785097
2.254375,0.010522865
2.255,-0.009613325
2.255625,-0.014564847
2.25625,-0.011924035
2.256875,-0.017205659
2.2575,-0.011593934
2.258125,-0.005322006
2.25875,0.006231546
2.259375,0.00491114
2.26,-0.003671498
2.260625,0.001280024
2.26125,0.00722185
2.261875,0.007882053
2.2625,0.014484083
2.263125,0.017785097
2.26375,0.028348345
2.264375,0.028678446
2.265,0.02966875
2.265625,0.039901896
2.26625,0.046503926
2.266875,0.054426361
2.2675,0.052445752
2.268125,0.057067173
2.26875,0.054426361
2.269375,0.062348796
2.27,0.068620724
2.270625,0.069280927
2.27125,0.077203363
2.271875,0.079183972
2.2725,0.084795697
2.273125,0.084135494
2.27375,0.072581942
2.274375,0.063999304
2.275,0.063008999
2.275625,0.06994113
2.27625,0.069611029
2.276875,0.075222754
2.2775,0.074232449
2.278125,0.072581942
2.27875,0.066640116
2.279375,0.065649811
2.28,0.075222754
2.280625,0.07654316
2.28125,0.059377883
2.281875,0.040562099
2.2825,0.024717228
2.283125,0.030659055
2.28375,0.029998852
2.284375,0.043863114
2.285,0.06763042
2.285625,0.063999304
2.28625,0.055416665
2.286875,0.047164129
2.2875,0.045513621
2.288125,0.037261084
2.28875,0.019435605
2.289375,0.015804489
2.29,0.011513169
2.290625,0.010192763
2.29125,0.014484083
2.291875,0.010522865
2.2925,0.002930531
2.293125,-4.04E-05
2.29375,0.004581038
2.294375,0.008212155
2.295,0.017785097
2.295625,0.036600881
2.29625,0.040562099
2.296875,0.036930983
2.2975,0.022406518
2.298125,0.000619821
2.29875,0.004581038
2.299375,0.02273662
2.3,0.058387579
2.300625,0.091067625
2.30125,0.112194119
2.301875,0.105922191
2.3025,0.083145189
2.303125,0.071591638
2.30375,0.071261536
2.304375,0.072912044
2.305,0.073572246
2.305625,0.088426813
2.30625,0.113514525
2.306875,0.109223206
2.3075,0.097999756
2.308125,0.099650263
2.30875,0.110873713
2.309375,0.105922191
2.31,0.107242597
2.310625,0.11681554
2.31125,0.106582394
2.311875,0.089087016
2.3125,0.074232449
2.313125,0.06102839
2.31375,0.053766158
2.314375,0.044523317
2.315,0.040231998
2.315625,0.035940678
2.31625,0.033299867
2.316875,0.027688142
2.3175,0.027688142
2.318125,0.032639664
2.31875,0.028018243
2.319375,0.027688142
2.32,0.020095808
2.320625,0.011513169
2.32125,0.014484083
2.321875,0.025377431
2.3225,0.036930983
2.323125,0.040562099
2.32375,0.03396007
2.324375,0.038251389
2.325,0.054426361
2.325625,0.067960521
2.32625,0.057397274
2.326875,0.060368188
2.3275,0.062018695
2.328125,0.066970217
2.32875,0.074562551
2.329375,0.082815088
2.33,0.081494682
2.330625,0.072251841
2.33125,0.070271232
2.331875,0.089417117
2.3325,0.093378335
2.333125,0.096349248
2.33375,0.095358944
2.334375,0.097009451
2.335,0.093378335
2.335625,0.087436508
2.33625,0.085786001
2.336875,0.083145189
2.3375,0.086776305
2.338125,0.088756914
2.33875,0.079183972
2.339375,0.077863566
2.34,0.075882957
2.340625,0.073242145
2.34125,0.075882957
2.341875,0.078193667
2.3425,0.078523769
2.343125,0.075222754
2.34375,0.078193667
2.344375,0.076213058
2.345,0.071261536
2.345625,0.060368188
2.34625,0.064329405
2.346875,0.068620724
2.3475,0.064329405
2.348125,0.059707985
2.34875,0.062678898
2.349375,0.064659507
2.35,0.06531971
2.350625,0.066310014
2.35125,0.070271232
2.351875,0.055416665
2.3525,0.053436057
2.353125,0.053436057
2.35375,0.05640697
2.354375,0.054426361
2.355,0.054426361
2.355625,0.057727376
2.35625,0.074232449
2.356875,0.082154885
2.3575,0.0854559
2.358125,0.071261536
2.35875,0.063008999
2.359375,0.042872809
2.36,0.032639664
2.360625,0.01613459
2.36125,0.005901444
2.361875,0.01382388
2.3625,0.02504733
2.363125,0.038911592
2.36375,0.054756462
2.364375,0.049474839
2.365,0.046173824
2.365625,0.033299867
2.36625,0.0184453
2.366875,-0.003341397
2.3675,-0.011924035
2.368125,0.008542256
2.36875,0.027027939
2.369375,0.041882505
2.37,0.034950374
2.370625,0.021416214
2.37125,0.014484083
2.371875,0.011513169
2.3725,0.028018243
2.373125,0.02966875
2.37375,0.015474387
2.374375,0.016794793
2.375,0.015804489
2.375625,0.024717228
2.37625,0.023396822
2.376875,0.027027939
2.3775,0.037591186
2.378125,0.048484534
2.37875,0.055086564
2.379375,0.064989608
2.38,0.06531971
2.380625,0.06531971
2.38125,0.052445752
2.381875,0.052445752
2.3825,0.062348796
2.383125,0.064329405
2.38375,0.062018695
2.384375,0.068950826
2.385,0.070271232
2.385625,0.065979913
2.38625,0.070271232
2.386875,0.062678898
2.3875,0.057397274
2.388125,0.048484534
2.38875,0.026697837
2.389375,0.025377431
2.39,0.012173372
2.390625,0.00491114
2.39125,-0.012254137
2.391875,-0.00631231
2.3925,0.009862662
2.393125,0.010852966
2.39375,0.017454996
2.394375,0.030328953
2.395,0.060038086
2.395625,0.064659507
2.39625,0.058057477
2.396875,0.049474839
2.3975,0.029338649
2.398125,0.027688142
2.39875,0.03627078
2.399375,0.026697837
2.4,0.015474387
2.400625,0.013163677
2.40125,0.041882505
2.401875,0.06763042
2.4025,0.083805392
2.403125,0.085125798
2.40375,0.079844174
2.404375,0.073572246
2.405,0.070931435
2.405625,0.085786001
2.40625,0.099650263
2.406875,0.086776305
2.4075,0.09007732
2.408125,0.088426813
2.40875,0.100970669
2.409375,0.104931886
2.41,0.092718132
2.410625,0.088426813
2.41125,0.085125798
2.411875,0.077863566
2.4125,0.078193667
2.413125,0.07654316
2.41375,0.068620724
2.414375,0.051455448
2.415,0.051455448
2.415625,0.054426361
2.41625,0.052115651
2.416875,0.037591186
2.4175,0.028678446
2.418125,0.03396007
2.41875,0.031319258
2.419375,0.036930983
2.42,0.03858149
2.420625,0.032309562
2.42125,0.024717228
2.421875,0.024057025
2.4225,0.030328953
2.423125,0.028018243
2.42375,0.016794793
2.424375,0.006891749
2.425,-0.008623021
2.425625,-0.009943426
2.42625,-0.009943426
2.426875,-0.009283223
2.4275,-0.007632716
2.428125,-0.002351093
2.42875,-0.008292919
2.429375,-0.023807688
2.43,-0.033710733
2.430625,-0.034370935
2.43125,-0.037341849
2.431875,-0.036351544
2.4325,-0.034040834
2.433125,-0.037011747
2.43375,-0.039322458
2.434375,-0.033710733
2.435,-0.028429109
2.435625,-0.021496978
2.43625,-0.007302615
2.436875,-0.007302615
2.4375,-0.00169089
2.438125,-0.010273528
2.43875,-0.017865862
2.439375,-0.010933731
2.44,-0.013904644
2.440625,-0.014234746
2.44125,-0.003671498
2.441875,0.009862662
2.4425,0.01613459
2.443125,0.019105503
2.44375,0.027027939
2.444375,0.030989156
2.445,0.033629968
2.445625,0.037261084
2.44625,0.046503926
2.446875,0.064329405
2.4475,0.068950826
2.448125,0.060038086
2.44875,0.068620724
2.449375,0.082815088
2.45,0.094038538
2.450625,0.08776661
2.45125,0.096349248
2.451875,0.077863566
2.4525,0.061358492
2.453125,0.058387579
2.45375,0.05871768
2.454375,0.050465143
2.455,0.040231998
2.455625,0.032309562
2.45625,0.027027939
2.456875,0.01382388
2.4575,0.000949922
2.458125,0.004581038
2.45875,0.032969765
2.459375,0.043863114
2.46,0.041222302
2.460625,0.032639664
2.46125,0.027027939
2.461875,0.023726924
2.4625,0.019105503
2.463125,0.002270328
2.46375,-0.011263832
2.464375,-0.032390327
2.465,-0.034040834
2.465625,-0.035691341
2.46625,-0.039982661
2.466875,-0.038992356
2.4675,-0.043283675
2.468125,-0.039652559
2.46875,-0.042293371
2.469375,-0.048235197
2.47,-0.058468343
2.470625,-0.06011885
2.47125,-0.064080068
2.471875,-0.064740271
2.4725,-0.062429561
2.473125,-0.059788749
2.47375,-0.054177024
2.474375,-0.044934183
2.475,-0.052196415
2.475625,-0.058468343
2.47625,-0.065730575
2.476875,-0.059128546
2.4775,-0.059458647
2.478125,-0.063749967
2.47875,-0.054837227
2.479375,-0.036021443
2.48,-0.014234746
2.480625,-0.005982209
2.48125,-0.014234746
2.481875,-0.01291434
2.4825,-0.013244441
2.483125,-0.00631231
2.48375,-0.005982209
2.484375,0.005901444
2.485,-0.002351093
2.485625,-0.008292919
2.48625,0.014153981
2.486875,0.044853418
2.4875,0.065649811
2.488125,0.06531971
2.48875,0.066310014
2.489375,0.069611029
2.49,0.057727376
2.490625,0.057397274
2.49125,0.060368188
2.491875,0.057727376
2.4925,0.063339101
2.493125,0.047164129
2.49375,0.02966875
2.494375,0.020095808
2.495,0.026367736
2.495625,0.020425909
2.49625,0.011183068
2.496875,0.006891749
2.4975,-0.002020991
2.498125,-0.014894949
2.49875,-0.012254137
2.499375,-0.011924035
2.5,-0.015555151
2.500625,-0.038002052
2.50125,-0.047244893
2.501875,-0.049885705
2.5025,-0.039982661
2.503125,-0.029089312
2.50375,-0.035691341
2.504375,-0.042623472
2.505,-0.050215806
2.505625,-0.051866314
2.50625,-0.051536212
2.506875,-0.051866314
2.5075,-0.059788749
2.508125,-0.08025504
2.50875,-0.081245345
2.509375,-0.079594837
2.51,-0.072332605
2.510625,-0.060779053
2.51125,-0.045924487
2.511875,-0.026118399
2.5125,-0.015555151
2.513125,-0.01291434
2.51375,-0.026778602
2.514375,-0.052526517
2.515,-0.052856618
2.515625,-0.039982661
2.51625,-0.031730124
2.516875,-0.024797993
2.5175,-0.025128094
2.518125,-0.020176572
2.51875,-0.026118399
2.519375,-0.034701037
2.52,-0.036351544
2.520625,-0.031400022
2.52125,-0.021827079
2.521875,-0.029749515
2.5225,-0.035691341
2.523125,-0.038002052
2.52375,-0.051536212
2.524375,-0.051866314
2.525,-0.043283675
2.525625,-0.031069921
2.52625,-0.039322458
2.526875,-0.050545908
2.5275,-0.061769358
2.528125,-0.066060677
2.52875,-0.06903159
2.529375,-0.068041286
2.53,-0.062429561
2.530625,-0.047244893
2.53125,-0.041963269
2.531875,-0.061109155
2.5325,-0.074313214
2.533125,-0.076293823
2.53375,-0.078934634
2.534375,-0.078274431
2.535,-0.081245345
2.535625,-0.079594837
2.53625,-0.067050981
2.536875,-0.06672088
2.5375,-0.068041286
2.538125,-0.072992808
2.53875,-0.090488186
2.539375,-0.101051433
2.54,-0.102701941
2.540625,-0.09808052
2.54125,-0.087517273
2.541875,-0.070021895
2.5425,-0.051206111
2.543125,-0.053516821
2.54375,-0.045924487
2.544375,-0.040972965
2.545,-0.046914791
2.545625,-0.059128546
2.54625,-0.060779053
2.546875,-0.061769358
2.5475,-0.069691793
2.548125,-0.069361692
2.54875,-0.063089764
2.549375,-0.06011885
2.55,-0.051536212
2.550625,-0.05549743
2.55125,-0.050545908
2.551875,-0.058138242
2.5525,-0.051536212
2.553125,-0.046254589
2.55375,-0.03305053
2.554375,-0.028429109
2.555,-0.039322458
2.555625,-0.038662255
2.55625,-0.038332153
2.556875,-0.046914791
2.5575,-0.037011747
2.558125,-0.03536124
2.55875,-0.026778602
2.559375,-0.021496978
2.56,-0.025788297
2.560625,-0.02413779
2.56125,-0.031400022
2.561875,-0.038002052
2.5625,-0.05780814
2.563125,-0.066390778
2.56375,-0.059788749
2.564375,-0.066060677
2.565,-0.065400474
2.565625,-0.070682098
2.56625,-0.067050981
2.566875,-0.068041286
2.5675,-0.061109155
2.568125,-0.052526517
2.56875,-0.061109155
2.569375,-0.06903159
2.57,-0.071672402
2.570625,-0.076293823
2.57125,-0.083556055
2.571875,-0.094779505
2.5725,-0.103362143
2.573125,-0.101051433
2.57375,-0.103032042
2.574375,-0.103032042
2.575,-0.094779505
2.575625,-0.079264736
2.57625,-0.084876461
2.576875,-0.087187171
2.5775,-0.083886157
2.578125,-0.087187171
2.57875,-0.081905548
2.579375,-0.064080068
2.58,-0.046914791
2.580625,-0.036021443
2.58125,-0.049885705
2.581875,-0.057147937
2.5825,-0.059458647
2.583125,-0.044934183
2.58375,-0.041303066
2.584375,-0.049555603
2.585,-0.049225502
2.585625,-0.035031138
2.58625,-0.025128094
2.586875,-0.019846471
2.5875,-0.009283223
2.588125,-0.002351093
2.58875,-0.00631231
2.589375,0.000619821
2.59,0.00722185
2.590625,0.007551952
2.59125,0.010192763
2.591875,0.015144286
2.5925,0.021086112
2.593125,0.018775402
2.59375,0.027027939
2.594375,0.018775402
2.595,0.020425909
2.595625,0.023396822
2.59625,0.024387127
2.596875,0.040892201
2.5975,0.057067173
2.598125,0.074892652
2.59875,0.095028842
2.599375,0.102951278
2.6,0.123087468
2.600625,0.149495585
2.60125,0.18415624
2.601875,0.20429243
2.6025,0.22442862
2.603125,0.246215317
2.60375,0.262390289
2.604375,0.277905059
2.605,0.271303029
2.605625,0.282856581
2.60625,0.323128961
2.606875,0.356799311
2.6075,0.406644633
2.608125,0.451208332
2.60875,0.494781727
2.609375,0.532083193
2.61,0.560802022
2.610625,0.588530545
2.61125,0.613618257
2.611875,0.635074853
2.6125,0.639366172
2.613125,0.668415102
2.61375,0.684920176
2.614375,0.676337538
2.615,0.675677335
2.615625,0.671716117
2.61625,0.659502362
2.616875,0.65224013
2.6175,0.632434041
2.618125,0.630123331
2.61875,0.624181505
2.619375,0.609326938
2.62,0.584239226
2.620625,0.563112732
2.62125,0.52680157
2.621875,0.489170002
2.6225,0.460781275
2.623125,0.43503336
2.62375,0.393110473
2.624375,0.348216673
2.625,0.291769321
2.625625,0.241263795
2.62625,0.188447559
2.626875,0.145204266
2.6275,0.118135945
2.628125,0.096019147
2.62875,0.059377883
2.629375,0.016794793
2.63,-0.018856166
2.630625,-0.039322458
2.63125,-0.066390778
2.631875,-0.084546359
2.6325,-0.101711636
2.633125,-0.118546811
2.63375,-0.153537567
2.634375,-0.176974772
2.635,-0.187538019
2.635625,-0.187538019
2.63625,-0.174994163
2.636875,-0.169382438
2.6375,-0.173673757
2.638125,-0.18984873
2.63875,-0.192489541
2.639375,-0.166411525
2.64,-0.184897207
2.640625,-0.199091571
2.64125,-0.184237005
2.641875,-0.160469698
2.6425,-0.138022798
2.643125,-0.169382438
2.64375,-0.205363499
2.644375,-0.215926746
2.645,-0.197441063
2.645625,-0.178295178
2.64625,-0.162120206
2.646875,-0.147265639
2.6475,-0.141653914
2.648125,-0.140003407
2.64875,-0.135712088
2.649375,-0.130430464
2.65,-0.115905999
2.650625,-0.115245797
2.65125,-0.10699326
2.651875,-0.113595289
2.6525,-0.116566202
2.653125,-0.121847826
2.65375,-0.114585594
2.654375,-0.116896304
2.655,-0.123828435
2.655625,-0.126139145
2.65625,-0.117226405
2.656875,-0.117556507
2.6575,-0.117886608
2.658125,-0.120857522
2.65875,-0.114255492
2.659375,-0.114915695
2.66,-0.111944782
2.660625,-0.107653463
2.66125,-0.10699326
2.661875,-0.115905999
2.6625,-0.126799348
2.663125,-0.124818739
2.66375,-0.132080972
2.664375,-0.150566654
2.665,-0.146935538
2.665625,-0.145945234
2.66625,-0.152877365
2.666875,-0.161790104
2.6675,-0.164100815
2.668125,-0.165421221
2.66875,-0.174994163
2.669375,-0.188858425
2.67,-0.18984873
2.670625,-0.170702844
2.67125,-0.164100815
2.671875,-0.160469698
2.6725,-0.167071728
2.673125,-0.173013554
2.67375,-0.174003859
2.674375,-0.158158988
2.675,-0.155518176
2.675625,-0.144624828
2.67625,-0.136702392
2.676875,-0.115905999
2.6775,-0.105342752
2.678125,-0.113265188
2.67875,-0.123498333
2.679375,-0.131090667
2.68,-0.122177927
2.680625,-0.115245797
2.68125,-0.108643767
2.681875,-0.08916778
2.6825,-0.067050981
2.683125,-0.052196415
2.68375,-0.059788749
2.684375,-0.060448952
2.685,-0.068371387
2.685625,-0.068371387
2.68625,-0.061439256
2.686875,-0.051536212
2.6875,-0.038662255
2.688125,-0.038662255
2.68875,-0.043613777
2.689375,-0.036351544
2.69,-0.034370935
2.690625,-0.040642863
2.69125,-0.056487734
2.691875,-0.068701489
2.6925,-0.071342301
2.693125,-0.072662706
2.69375,-0.060448952
2.694375,-0.062429561
2.695,-0.057147937
2.695625,-0.052196415
2.69625,-0.039652559
2.696875,-0.038332153
2.6975,-0.041303066
2.698125,-0.030739819
2.69875,-0.020176572
2.699375,-0.027438805
2.7,-0.044934183
2.700625,-0.054507125
2.70125,-0.047244893
2.701875,-0.050876009
2.7025,-0.061439256
2.703125,-0.058798445
2.70375,-0.047574994
2.704375,-0.03767195
2.705,-0.042953574
2.705625,-0.055167328
2.70625,-0.055827531
2.706875,-0.059128546
2.7075,-0.060779053
2.708125,-0.06441017
2.70875,-0.051866314
2.709375,-0.055827531
2.71,-0.067050981
2.710625,-0.086196867
2.71125,-0.094779505
2.711875,-0.070682098
2.7125,-0.049885705
2.713125,-0.060448952
2.71375,-0.06903159
2.714375,-0.06903159
2.715,-0.066060677
2.715625,-0.064080068
2.71625,-0.067381083
2.716875,-0.084876461
2.7175,-0.079264736
2.718125,-0.056817836
2.71875,-0.047244893
2.719375,-0.041963269
2.72,-0.039322458
2.720625,-0.03767195
2.72125,-0.039982661
2.721875,-0.045264284
2.7225,-0.048235197
2.723125,-0.039982661
2.72375,-0.02413779
2.724375,-0.018195963
2.725,-0.024467891
2.725625,-0.011593934
2.72625,-0.017205659
2.726875,-0.021827079
2.7275,-0.024797993
2.728125,-0.020836775
2.72875,-0.013904644
2.729375,0.001610125
2.73,0.010852966
2.730625,0.019105503
2.73125,0.019105503
2.731875,0.020095808
2.7325,0.005241241
2.733125,-0.005322006
2.73375,-0.024797993
2.734375,-0.016545456
2.735,-0.016545456
2.735625,-0.023147485
2.73625,-0.019186268
2.736875,-0.004661803
2.7375,0.000949922
2.738125,0.006561647
2.73875,0.009862662
2.739375,0.003260633
2.74,-0.01522505
2.740625,-0.0264485
2.74125,-0.026118399
2.741875,-0.006972513
2.7425,0.011843271
2.743125,0.001280024
2.74375,-0.013244441
2.744375,-0.025128094
2.745,-0.03536124
2.745625,-0.034040834
2.74625,-0.022487282
2.746875,-0.026118399
2.7475,-0.029089312
2.748125,-0.018526065
2.74875,-0.008953122
2.749375,-0.016545456
2.75,-0.017205659
2.750625,-0.022817384
2.75125,-0.019846471
2.751875,-0.030079616
2.7525,-0.032390327
2.753125,-0.034701037
2.75375,-0.023807688
2.754375,-0.015555151
2.755,-0.016875557
2.755625,-0.0264485
2.75625,-0.022817384
2.756875,-0.021827079
2.7575,-0.009943426
2.758125,-0.005982209
2.75875,0.000949922
2.759375,-0.007962818
2.76,-0.0264485
2.760625,-0.019186268
2.76125,-0.007632716
2.761875,-0.004331701
2.7625,-0.009283223
2.763125,-0.000370484
2.76375,0.00260043
2.764375,-0.00631231
2.765,-0.009283223
2.765625,-0.015555151
2.76625,-0.01291434
2.766875,-0.004991904
2.7675,-0.002020991
2.768125,0.007551952
2.76875,0.003920835
2.769375,0.016464691
2.77,0.015804489
2.770625,0.009862662
2.77125,0.011513169
2.771875,0.025707533
2.7725,0.036600881
2.773125,0.026367736
2.77375,0.00722185
2.774375,0.004250937
2.775,0.00260043
2.775625,0.008872358
2.77625,0.015144286
2.776875,0.032309562
2.7775,0.033299867
2.778125,0.032639664
2.77875,0.026037634
2.779375,0.016464691
2.78,0.010852966
2.780625,0.0184453
2.78125,0.023726924
2.781875,0.033299867
2.7825,0.033299867
2.783125,0.019765706
2.78375,-0.003671498
2.784375,0.001280024
2.785,0.022076417
2.785625,0.033299867
2.78625,0.02966875
2.786875,0.0184453
2.7875,0.003920835
2.788125,-0.008953122
2.78875,-0.01291434
2.789375,-0.002351093
2.79,-4.04E-05
2.790625,-0.0040016
2.79125,-0.00631231
2.791875,0.000949922
2.7925,0.008872358
2.793125,0.010192763
2.79375,0.00491114
2.794375,-0.012254137
2.795,-0.015885253
2.795625,-0.016545456
2.79625,-0.01291434
2.796875,-0.005322006
2.7975,-0.016875557
2.798125,-0.026118399
2.79875,-0.021166877
2.799375,-0.010603629
2.8,0.007551952
2.800625,0.010852966
2.80125,0.015804489
2.801875,0.007882053
2.8025,0.003260633
2.803125,-0.00631231
2.80375,-0.011263832
2.804375,-0.017205659
2.805,-0.027108703
2.805625,-0.029089312
2.80625,-0.022817384
2.806875,-0.021827079
2.8075,-0.011924035
2.808125,-0.011924035
2.80875,-0.008292919
2.809375,-0.00631231
2.81,0.007551952
2.810625,0.01382388
2.81125,0.00260043
2.811875,0.003590734
2.8125,0.004581038
2.813125,-0.003341397
2.81375,-0.015555151
2.814375,-0.032390327
2.815,-0.026118399
2.815625,-0.020836775
2.81625,-0.022487282
2.816875,-0.022817384
2.8175,-0.024797993
2.818125,-0.012254137
2.81875,-0.002681194
2.819375,-0.0040016
2.82,-0.020176572
2.820625,-0.036681646
2.82125,-0.042623472
2.821875,-0.034370935
2.8225,-0.017205659
2.823125,-0.017205659
2.82375,-0.02875921
2.824375,-0.025128094
2.825,-0.032720428
2.825625,-0.027108703
2.82625,-0.036351544
2.826875,-0.039652559
2.8275,-0.038992356
2.828125,-0.037341849
2.82875,-0.038332153
2.829375,-0.034040834
2.83,-0.030739819
2.830625,-0.02413779
2.83125,-0.027438805
2.831875,-0.017205659
2.8325,-0.012584238
2.833125,-0.007962818
2.83375,-0.011263832
2.834375,-0.020506674
2.835,-0.035691341
2.835625,-0.03767195
2.83625,-0.032060225
2.836875,-0.027438805
2.8375,-0.023807688
2.838125,-0.025128094
2.83875,-0.026778602
2.839375,-0.016215354
2.84,-0.021827079
2.840625,-0.025128094
2.84125,-0.025128094
2.841875,-0.029089312
2.8425,-0.034040834
2.843125,-0.029419413
2.84375,-0.001360788
2.844375,0.009532561
2.845,-0.005652107
2.845625,-0.013574543
2.84625,-0.010273528
2.846875,0.000949922
2.8475,-0.001030687
2.848125,-0.006642412
2.84875,0.008872358
2.849375,0.015144286
2.85,-0.000700585
2.850625,-0.020836775
2.85125,-0.025458196
2.851875,-0.022817384
2.8525,-0.01291434
2.853125,-4.04E-05
2.85375,0.012173372
2.854375,0.009202459
2.855,-0.01753576
2.855625,-0.049225502
2.85625,-0.047905096
2.856875,-0.023807688
2.8575,-0.00169089
2.858125,-0.001030687
2.85875,0.000619821
2.859375,-0.010933731
2.86,-0.026778602
2.860625,-0.043283675
2.86125,-0.042953574
2.861875,-0.038662255
2.8625,-0.040312762
2.863125,-0.025128094
2.86375,-0.025458196
2.864375,-0.023477587
2.865,-0.032390327
2.865625,-0.034370935
2.86625,-0.02413779
2.866875,-0.022487282
2.8675,-0.00631231
2.868125,0.008542256
2.86875,-0.004661803
2.869375,-0.016545456
2.87,-0.014234746
2.870625,-0.011593934
2.87125,-0.011924035
2.871875,-0.010603629
2.8725,-0.003671498
2.873125,0.008872358
2.87375,0.014484083
2.874375,0.010852966
2.875,0.001280024
2.875625,-0.004331701
2.87625,-0.008292919
2.876875,0.000289719
2.8775,0.005901444
2.878125,0.008872358
2.87875,0.007551952
2.879375,0.006891749
2.88,0.014153981
2.880625,0.000289719
2.88125,-0.01522505
2.881875,-0.007632716
2.8825,-0.006642412
2.883125,-0.009283223
2.88375,-0.016545456
2.884375,-0.01522505
2.885,-0.014234746
2.885625,-0.008292919
2.88625,-0.008292919
2.886875,-0.016875557
2.8875,-0.015885253
2.888125,-0.017865862
2.88875,-0.01753576
2.889375,-0.018195963
2.89,-0.0264485
2.890625,-0.022157181
2.89125,-0.025788297
2.891875,-0.032390327
2.8925,-0.035031138
2.893125,-0.025788297
2.89375,-0.01291434
2.894375,-0.036681646
2.895,-0.043613777
2.895625,-0.050215806
2.89625,-0.05780814
2.896875,-0.039982661
2.8975,-0.019846471
2.898125,-0.003671498
2.89875,-0.009283223
2.899375,-0.027768906
2.9,-0.034370935
2.900625,-0.034370935
2.90125,-0.021166877
2.901875,-0.022487282
2.9025,-0.021496978
2.903125,-0.027108703
2.90375,-0.028099007
2.904375,-0.015555151
2.905,-0.014564847
2.905625,-0.01522505
2.90625,-0.00169089
2.906875,-0.0040016
2.9075,-0.011924035
2.908125,-0.023477587
2.90875,-0.006972513
2.909375,-0.002020991
2.91,0.005571343
2.910625,0.024387127
2.91125,0.039571795
2.911875,0.041552404
2.9125,0.028678446
2.913125,0.013163677
2.91375,-0.000700585
2.914375,-0.02413779
2.915,-0.03767195
2.915625,-0.023477587
2.91625,-0.010273528
2.916875,-0.0040016
2.9175,-0.001360788
2.918125,0.005241241
2.91875,-0.009283223
2.919375,-0.010273528
2.92,-4.04E-05
2.920625,-0.004661803
2.92125,-0.015885253
2.921875,-0.014894949
2.9225,0.014814184
2.923125,0.045513621
2.92375,0.052445752
2.924375,0.040892201
2.925,0.013163677
2.925625,-0.009943426
2.92625,-0.027108703
2.926875,-0.037341849
2.9275,-0.044604081
2.928125,-0.047574994
2.92875,-0.034701037
2.929375,-0.011924035
2.93,0.009532561
2.930625,0.029338649
2.93125,0.023726924
2.931875,0.028678446
2.9325,0.020756011
2.933125,0.008872358
2.93375,-0.009613325
2.934375,0.015804489
2.935,0.031979461
2.935625,0.026037634
2.93625,0.017124894
2.936875,0.018115199
2.9375,0.017785097
2.938125,0.01613459
2.93875,0.01382388
2.939375,0.017454996
2.94,0.008212155
2.940625,0.007551952
2.94125,0.014484083
2.941875,0.0184453
2.9425,0.018775402
2.943125,0.02273662
2.94375,0.02966875
2.944375,0.020425909
2.945,0.013493778
2.945625,0.013493778
2.94625,0.014814184
2.946875,0.02504733
2.9475,0.025707533
2.948125,0.010522865
2.94875,0.012833575
2.949375,0.01382388
2.95,0.010522865
2.950625,-0.000370484
2.95125,-0.007632716
2.951875,-0.019186268
2.9525,-0.02413779
2.953125,-0.021166877
2.95375,-0.008292919
2.954375,0.000289719
2.955,-0.007302615
2.955625,-0.002681194
2.95625,0.009532561
2.956875,0.002270328
2.9575,-4.04E-05
2.958125,-0.011593934
2.95875,-0.007632716
2.959375,-0.009943426
2.96,-0.01522505
2.960625,-0.02413779
2.96125,-0.038332153
2.961875,-0.053186719
2.9625,-0.0488954
2.963125,-0.035691341
2.96375,-0.017205659
2.964375,-0.01753576
2.965,-0.028099007
2.965625,-0.045594386
2.96625,-0.057147937
2.966875,-0.058798445
2.9675,-0.060779053
2.968125,-0.053516821
2.96875,-0.033380631
2.969375,-0.029089312
2.97,-0.02413779
2.970625,-0.018526065
2.97125,-0.042623472
2.971875,-0.065400474
2.9725,-0.072662706
2.973125,-0.064740271
2.97375,-0.05549743
2.974375,-0.045924487
2.975,-0.048235197
2.975625,-0.049225502
2.97625,-0.053516821
2.976875,-0.051536212
2.9775,-0.057147937
2.978125,-0.063089764
2.97875,-0.065400474
2.979375,-0.060779053
2.98,-0.042293371
2.980625,-0.020506674
2.98125,-0.013244441
2.981875,-0.005982209
2.9825,-0.016215354
2.983125,-0.01291434
2.98375,-0.014564847
2.984375,-0.01522505
2.985,-0.025458196
2.985625,-0.017865862
2.98625,0.001280024
2.986875,-4.04E-05
2.9875,-0.017205659
2.988125,-0.037011747
2.98875,-0.050876009
2.989375,-0.051206111
2.99,-0.058138242
2.990625,-0.053186719
2.99125,-0.049555603
2.991875,-0.038002052
2.9925,-0.020506674
2.993125,-0.022487282
2.99375,-0.037341849
2.994375,-0.041303066
2.995,-0.044604081
2.995625,-0.051206111
2.99625,-0.057147937
2.996875,-0.061439256
2.9975,-0.074643315
2.998125,-0.091148389
2.99875,-0.09808052
2.999375,-0.096099911
3,-0.086196867
3.000625,-0.086196867
3.00125,-0.070351996
3.001875,-0.057478039
3.0025,-0.059128546
3.003125,-0.067381083
3.00375,-0.073653011
3.004375,-0.068041286
3.005,-0.068371387
3.005625,-0.064740271
3.00625,-0.055827531
3.006875,-0.057147937
3.0075,-0.057147937
3.008125,-0.055167328
3.00875,-0.046254589
3.009375,-0.047905096
3.01,-0.042953574
3.010625,-0.024797993
3.01125,-0.025788297
3.011875,-0.038002052
3.0125,-0.039982661
3.013125,-0.024467891
3.01375,-0.015555151
3.014375,-0.021166877
3.015,-0.024797993
3.015625,-0.022157181
3.01625,-0.020506674
3.016875,-0.022817384
3.0175,-0.027438805
3.018125,-0.029749515
3.01875,-0.039322458
3.019375,-0.038992356
3.02,-0.031730124
3.020625,-0.026778602
3.02125,-0.032390327
3.021875,-0.031730124
3.0225,-0.028099007
3.023125,-0.026118399
3.02375,-0.026118399
3.024375,-0.024797993
3.025,-0.034040834
3.025625,-0.035031138
3.02625,-0.055167328
3.026875,-0.068371387
3.0275,-0.063089764
3.028125,-0.056817836
3.02875,-0.054837227
3.029375,-0.046914791
3.03,-0.047574994
3.030625,-0.046914791
3.03125,-0.043283675
3.031875,-0.032720428
3.0325,-0.03536124
3.033125,-0.030079616
3.03375,-0.035691341
3.034375,-0.040312762
3.035,-0.048565299
3.035625,-0.055827531
3.03625,-0.055167328
3.036875,-0.040312762
3.0375,-0.033710733
3.038125,-0.042953574
3.03875,-0.05780814
3.039375,-0.050215806
3.04,-0.055827531
3.040625,-0.06672088
3.04125,-0.062429561
3.041875,-0.047574994
3.0425,-0.046914791
3.043125,-0.056157633
3.04375,-0.074973417
3.044375,-0.080585142
3.045,-0.078274431
3.045625,-0.090818287
3.04625,-0.090818287
3.046875,-0.085536664
3.0475,-0.092138693
3.048125,-0.088837679
3.04875,-0.083225954
3.049375,-0.064740271
3.05,-0.053516821
3.050625,-0.071012199
3.05125,-0.066390778
3.051875,-0.079594837
3.0525,-0.084216258
3.053125,-0.084216258
3.05375,-0.077284127
3.054375,-0.072332605
3.055,-0.070021895
3.055625,-0.079924939
3.05625,-0.087847374
3.056875,-0.086526968
3.0575,-0.065400474
3.058125,-0.044934183
3.05875,-0.034370935
3.059375,-0.047905096
3.06,-0.05780814
3.060625,-0.056817836
3.06125,-0.064740271
3.061875,-0.067050981
3.0625,-0.061439256
3.063125,-0.05549743
3.06375,-0.059458647
3.064375,-0.069691793
3.065,-0.073653011
3.065625,-0.065400474
3.06625,-0.070682098
3.066875,-0.091808592
3.0675,-0.093128998
3.068125,-0.082565751
3.06875,-0.085206562
3.069375,-0.075303518
3.07,-0.058798445
3.070625,-0.065400474
3.07125,-0.068371387
3.071875,-0.077614229
3.0725,-0.083225954
3.073125,-0.073983112
3.07375,-0.070351996
3.074375,-0.080585142
3.075,-0.087847374
3.075625,-0.088507577
3.07625,-0.096760114
3.076875,-0.088177476
3.0775,-0.081575446
3.078125,-0.065070373
3.07875,-0.041633168
3.079375,-0.01522505
3.08,-0.006972513
3.080625,-0.024467891
3.08125,-0.02875921
3.081875,-0.023807688
3.0825,-0.04658469
3.083125,-0.059458647
3.08375,-0.057478039
3.084375,-0.042293371
3.085,-0.034040834
3.085625,-0.036351544
3.08625,-0.044604081
3.086875,-0.050545908
3.0875,-0.040312762
3.088125,-0.03536124
3.08875,-0.032720428
3.089375,-0.038002052
3.09,-0.053516821
3.090625,-0.051206111
3.09125,-0.058468343
3.091875,-0.058468343
3.0925,-0.041633168
3.093125,-0.046254589
3.09375,-0.049225502
3.094375,-0.056157633
3.095,-0.055167328
3.095625,-0.058138242
3.09625,-0.047574994
3.096875,-0.044604081
3.0975,-0.060779053
3.098125,-0.063749967
3.09875,-0.053516821
3.099375,-0.036681646
3.1,-0.025128094
3.100625,-0.030079616
3.10125,-0.021166877
3.101875,-0.018856166
3.1025,-0.011263832
3.103125,-0.011593934
3.10375,-0.008292919
3.104375,-0.009283223
3.105,-0.010273528
3.105625,-0.010603629
3.10625,0.000619821
3.106875,0.010852966
3.1075,0.014153981
3.108125,0.010522865
3.10875,0.014484083
3.109375,0.006891749
3.11,0.000289719
3.110625,-0.004661803
3.11125,-0.011263832
3.111875,-0.003341397
3.1125,0.007551952
3.113125,0.012173372
3.11375,0.002270328
3.114375,-0.01522505
3.115,-0.016215354
3.115625,-0.010273528
3.11625,0.001610125
3.116875,0.010192763
3.1175,-0.004331701
3.118125,-0.006642412
3.11875,-0.000370484
3.119375,-4.04E-05
3.12,0.006231546
3.120625,0.009862662
3.12125,0.003920835
3.121875,-0.003671498
3.1225,-0.007962818
3.123125,-0.011593934
3.12375,-0.002020991
3.124375,0.017454996
3.125,0.028348345
3.125625,0.049474839
3.12625,0.057397274
3.126875,0.065979913
3.1275,0.061688593
3.128125,0.046834027
3.12875,0.034290171
3.129375,0.021416214
3.13,0.023726924
3.130625,0.035280476
3.13125,0.043202911
3.131875,0.049144737
3.1325,0.047824332
3.133125,0.039241693
3.13375,0.024057025
3.134375,0.025707533
3.135,0.041552404
3.135625,0.052775854
3.13625,0.047824332
3.136875,0.042212606
3.1375,0.044853418
3.138125,0.044523317
3.13875,0.03858149
3.139375,0.035280476
3.14,0.033299867
3.140625,0.039241693
3.14125,0.045843723
3.141875,0.042872809
3.1425,0.03627078
3.143125,0.034290171
3.14375,0.03858149
3.144375,0.047824332
3.145,0.063008999
3.145625,0.069280927
3.14625,0.080174276
3.146875,0.090407422
3.1475,0.092718132
3.148125,0.099650263
3.14875,0.118466047
3.149375,0.132990512
3.15,0.14817518
3.150625,0.155767513
3.15125,0.192408777
3.151875,0.229380142
3.1525,0.264040797
3.153125,0.27823516
3.15375,0.295070335
3.154375,0.318837641
3.155,0.336002918
3.155625,0.358119717
3.15625,0.37891611
3.156875,0.396741589
3.1575,0.415887475
3.158125,0.439984882
3.15875,0.485868987
3.159375,0.519209236
3.16,0.546277557
3.160625,0.57169537
3.16125,0.584569328
3.161875,0.602394807
3.1625,0.617579475
3.163125,0.647288608
3.16375,0.665114087
3.164375,0.662143174
3.165,0.655871246
3.165625,0.645307999
3.16625,0.639036071
3.166875,0.628802925
3.1675,0.612958055
3.168125,0.613288156
3.16875,0.606356025
3.169375,0.58291882
3.17,0.551889282
3.170625,0.522510251
3.17125,0.502374061
3.171875,0.480917465
3.1725,0.464742493
3.173125,0.448897622
3.17375,0.425790519
3.174375,0.399712503
3.175,0.354488601
3.175625,0.309264699
3.17625,0.273283638
3.176875,0.238292882
3.1775,0.209904155
3.178125,0.180855225
3.17875,0.150155788
3.179375,0.132330309
3.18,0.104931886
3.180625,0.075552855
3.18125,0.048484534
3.181875,0.02966875
3.1825,0.002930531
3.183125,0.000949922
3.18375,-0.005322006
3.184375,-0.019186268
3.185,-0.035691341
3.185625,-0.044934183
3.18625,-0.047244893
3.186875,-0.048235197
3.1875,-0.041633168
3.188125,-0.032390327
3.18875,-0.033380631
3.189375,-0.048565299
3.19,-0.073983112
3.190625,-0.079594837
3.19125,-0.07563362
3.191875,-0.08025504
3.1925,-0.076954026
3.193125,-0.072332605
3.19375,-0.065070373
3.194375,-0.071672402
3.195,-0.077614229
3.195625,-0.084216258
3.19625,-0.072332605
3.196875,-0.041303066
3.1975,-0.032390327
3.198125,-0.040312762
3.19875,-0.031400022
3.199375,-0.032060225
3.2,-0.045924487
3.200625,-0.064740271
3.20125,-0.065400474
3.201875,-0.087187171
3.2025,-0.104682549
3.203125,-0.104352448
3.20375,-0.110294274
3.204375,-0.104352448
3.205,-0.09576981
3.205625,-0.084876461
3.20625,-0.088507577
3.206875,-0.114255492
3.2075,-0.125148841
3.208125,-0.133731479
3.20875,-0.124158536
3.209375,-0.113595289
3.21,-0.12052742
3.210625,-0.140333509
3.21125,-0.164100815
3.211875,-0.160139597
3.2125,-0.142314117
3.213125,-0.115575898
3.21375,-0.093128998
3.214375,-0.086526968
3.215,-0.080915243
3.215625,-0.083556055
3.21625,-0.087517273
3.216875,-0.086526968
3.2175,-0.082565751
3.218125,-0.063749967
3.21875,-0.045264284
3.219375,-0.032720428
3.22,-0.024797993
3.220625,-0.009613325
3.22125,-0.004331701
3.221875,-0.009943426
3.2225,-0.003011295
3.223125,-0.003341397
3.22375,-0.005322006
3.224375,-0.010603629
3.225,-0.000370484
3.225625,0.019105503
3.22625,0.011843271
3.226875,0.007882053
3.2275,-0.002020991
3.228125,-0.002351093
3.22875,-0.003011295
3.229375,0.008872358
3.23,0.004250937
3.230625,-0.006972513
3.23125,-0.015555151
3.231875,-0.029419413
3.2325,-0.051536212
3.233125,-0.060448952
3.23375,-0.056487734
3.234375,-0.046914791
3.235,-0.041633168
3.235625,-0.038662255
3.23625,-0.041303066
3.236875,-0.058468343
3.2375,-0.065730575
3.238125,-0.066060677
3.23875,-0.066060677
3.239375,-0.053186719
3.24,-0.047244893
3.240625,-0.043613777
3.24125,-0.041963269
3.241875,-0.035691341
3.2425,-0.036021443
3.243125,-0.047905096
3.24375,-0.053846922
3.244375,-0.054837227
3.245,-0.043613777
3.245625,-0.030739819
3.24625,-0.021827079
3.246875,-0.016875557
3.2475,-0.023147485
3.248125,-0.037011747
3.24875,-0.040972965
3.249375,-0.047244893
3.25,-0.050215806
3.250625,-0.061439256
3.25125,-0.049555603
3.251875,-0.04427398
3.2525,-0.039982661
3.253125,-0.042953574
3.25375,-0.032390327
3.254375,-0.040312762
3.255,-0.047244893
3.255625,-0.039322458
3.25625,-0.039652559
3.256875,-0.050215806
3.2575,-0.050876009
3.258125,-0.049555603
3.25875,-0.040312762
3.259375,-0.033710733
3.26,-0.035691341
3.260625,-0.049885705
3.26125,-0.057147937
3.261875,-0.047574994
3.2625,-0.034370935
3.263125,-0.023147485
3.26375,-0.004661803
3.264375,-0.00631231
3.265,-0.010933731
3.265625,-0.034370935
3.26625,-0.04427398
3.266875,-0.041303066
3.2675,-0.029749515
3.268125,-0.013244441
3.26875,-0.023477587
3.269375,-0.027108703
3.27,-0.027438805
3.270625,-0.009943426
3.27125,-0.004331701
3.271875,-0.008953122
3.2725,-0.014234746
3.273125,-0.022817384
3.27375,-0.029419413
3.274375,-0.022817384
3.275,-0.024467891
3.275625,-0.037341849
3.27625,-0.054177024
3.276875,-0.039322458
3.2775,-0.02413779
3.278125,-0.005652107
3.27875,0.003260633
3.279375,0.004250937
3.28,-0.001030687
3.280625,-0.02413779
3.28125,-0.045924487
3.281875,-0.050876009
3.2825,-0.063419865
3.283125,-0.067050981
3.28375,-0.053186719
3.284375,-0.029419413
3.285,-0.011263832
3.285625,-0.019846471
3.28625,-0.032390327
3.286875,-0.030409718
3.2875,-0.014234746
3.288125,-0.020506674
3.28875,-0.037011747
3.289375,-0.026778602
3.29,-0.013904644
3.290625,-0.003011295
3.29125,-0.010603629
3.291875,-0.026118399
3.2925,-0.038332153
3.293125,-0.046914791
3.29375,-0.040972965
3.294375,-0.018856166
3.295,-0.004331701
3.295625,-0.003671498
3.29625,-0.00169089
3.296875,-0.003011295
3.2975,-0.011924035
3.298125,-0.020506674
3.29875,-0.030409718
3.299375,-0.020506674
3.3,0.000289719
3.300625,-0.003671498
3.30125,-0.0040016
3.301875,-0.00169089
3.3025,0.008542256
3.303125,0.017785097
3.30375,0.016464691
3.304375,0.006561647
3.305,0.002930531
3.305625,0.014153981
3.30625,0.015804489
3.306875,0.005241241
3.3075,0.014153981
3.308125,0.006891749
3.30875,-0.001360788
3.309375,-0.004991904
3.31,-0.002351093
3.310625,0.006891749
3.31125,0.013493778
3.311875,0.008542256
3.3125,0.009202459
3.313125,0.014484083
3.31375,0.006561647
3.314375,-0.005652107
3.315,-0.00631231
3.315625,-0.008953122
3.31625,-0.000700585
3.316875,-0.007632716
3.3175,-0.020506674
3.318125,-0.022817384
3.31875,-0.02413779
3.319375,-0.025788297
3.32,-0.038662255
3.320625,-0.038002052
3.32125,-0.038992356
3.321875,-0.04427398
3.3225,-0.043283675
3.323125,-0.041633168
3.32375,-0.047574994
3.324375,-0.038992356
3.325,-0.027108703
3.325625,-0.019516369
3.32625,-0.020836775
3.326875,-0.025128094
3.3275,-0.0264485
3.328125,-0.020506674
3.32875,-0.02413779
3.329375,-0.023477587
3.33,-0.014234746
3.330625,-0.010603629
3.33125,-0.010933731
3.331875,-0.004991904
3.3325,-0.010933731
3.333125,-0.019516369
3.33375,-0.031069921
3.334375,-0.03536124
3.335,-0.038002052
3.335625,-0.027108703
3.33625,-0.014894949
3.336875,-0.010273528
3.3375,-0.009943426
3.338125,-0.023147485
3.33875,-0.033380631
3.339375,-0.038002052
3.34,-0.045594386
3.340625,-0.036681646
3.34125,-0.020176572
3.341875,-0.005982209
3.3425,-0.017865862
3.343125,-0.042623472
3.34375,-0.044934183
3.344375,-0.054177024
3.345,-0.062429561
3.345625,-0.061439256
3.34625,-0.055167328
3.346875,-0.045264284
3.3475,-0.049225502
3.348125,-0.059788749
3.34875,-0.053186719
3.349375,-0.034701037
3.35,-0.024467891
3.350625,-0.029419413
3.35125,-0.034370935
3.351875,-0.045924487
3.3525,-0.043613777
3.353125,-0.042953574
3.35375,-0.03536124
3.354375,-0.039322458
3.355,-0.053516821
3.355625,-0.048565299
3.35625,-0.036681646
3.356875,-0.044934183
3.3575,-0.048565299
3.358125,-0.045594386
3.35875,-0.029419413
3.359375,-0.034370935
3.36,-0.039652559
3.360625,-0.0488954
3.36125,-0.053846922
3.361875,-0.058468343
3.3625,-0.053846922
3.363125,-0.050545908
3.36375,-0.051206111
3.364375,-0.047244893
3.365,-0.050215806
3.365625,-0.045264284
3.36625,-0.047244893
3.366875,-0.060779053
3.3675,-0.061439256
3.368125,-0.047244893
3.36875,-0.049555603
3.369375,-0.050876009
3.37,-0.055827531
3.370625,-0.050876009
3.37125,-0.053516821
3.371875,-0.049885705
3.3725,-0.041963269
3.373125,-0.042953574
3.37375,-0.056817836
3.374375,-0.061109155
3.375,-0.060779053
3.375625,-0.043283675
3.37625,-0.051206111
3.376875,-0.056817836
3.3775,-0.066060677
3.378125,-0.070351996
3.37875,-0.071672402
3.379375,-0.063749967
3.38,-0.051206111
3.380625,-0.053516821
3.38125,-0.065400474
3.381875,-0.065730575
3.3825,-0.067711184
3.383125,-0.062429561
3.38375,-0.069361692
3.384375,-0.06011885
3.385,-0.05549743
3.385625,-0.067711184
3.38625,-0.07794433
3.386875,-0.087517273
3.3875,-0.092138693
3.388125,-0.107653463
3.38875,-0.113925391
3.389375,-0.086526968
3.39,-0.077284127
3.390625,-0.070351996
3.39125,-0.071012199
3.391875,-0.06903159
3.3925,-0.054837227
3.393125,-0.052196415
3.39375,-0.041633168
3.394375,-0.027768906
3.395,-0.023807688
3.395625,-0.029749515
3.39625,-0.034701037
3.396875,-0.034040834
3.3975,-0.027768906
3.398125,-0.016215354
3.39875,-0.011593934
3.399375,-0.014234746
3.4,0.003260633
3.400625,0.01382388
3.40125,0.011513169
3.401875,0.01613459
3.4025,0.024717228
3.403125,0.024057025
3.40375,0.02273662
3.404375,0.021086112
3.405,0.012833575
3.405625,0.006231546
3.40625,0.016794793
3.406875,0.014484083
3.4075,0.011513169
3.408125,0.001610125
3.40875,0.010192763
3.409375,0.00260043
3.41,-0.01753576
3.410625,-0.032060225
3.41125,-0.03767195
3.411875,-0.027438805
3.4125,-0.016545456
3.413125,-0.001030687
3.41375,0.011513169
3.414375,0.009862662
3.415,-0.004991904
3.415625,-0.032720428
3.41625,-0.052526517
3.416875,-0.05780814
3.4175,-0.053846922
3.418125,-0.032060225
3.41875,-0.032720428
3.419375,-0.041303066
3.42,-0.039982661
3.420625,-0.046254589
3.42125,-0.043613777
3.421875,-0.038002052
3.4225,-0.027438805
3.423125,-0.034370935
3.42375,-0.039322458
3.424375,-0.039652559
3.425,-0.045594386
3.425625,-0.03536124
3.42625,-0.033710733
3.426875,-0.038332153
3.4275,-0.047574994
3.428125,-0.06672088
3.42875,-0.078934634
3.429375,-0.085866765
3.43,-0.073983112
3.430625,-0.05549743
3.43125,-0.056487734
3.431875,-0.052856618
3.4325,-0.05549743
3.433125,-0.050876009
3.43375,-0.049225502
3.434375,-0.039652559
3.435,-0.03767195
3.435625,-0.043613777
3.43625,-0.040312762
3.436875,-0.040312762
3.4375,-0.052196415
3.438125,-0.065400474
3.43875,-0.060448952
3.439375,-0.042293371
3.44,-0.042953574
3.440625,-0.046254589
3.44125,-0.041633168
3.441875,-0.033710733
3.4425,-0.036351544
3.443125,-0.038002052
3.44375,-0.025788297
3.444375,-0.018195963
3.445,-0.023147485
3.445625,-0.028429109
3.44625,-0.022157181
3.446875,-0.008292919
3.4475,-0.011924035
3.448125,-0.022157181
3.44875,-0.027768906
3.449375,-0.037341849
3.45,-0.041303066
3.450625,-0.038002052
3.45125,-0.030739819
3.451875,-0.045594386
3.4525,-0.057147937
3.453125,-0.046254589
3.45375,-0.020176572
3.454375,-0.00631231
3.455,-0.017205659
3.455625,-0.029089312
3.45625,-0.024467891
3.456875,-0.021827079
3.4575,-0.014894949
3.458125,-0.01291434
3.45875,0.005241241
3.459375,0.003590734
3.46,-0.000370484
3.460625,0.00722185
3.46125,0.009532561
3.461875,0.017454996
3.4625,0.023396822
3.463125,0.024057025
3.46375,0.024717228
3.464375,0.005901444
3.465,0.012833575
3.465625,0.022076417
3.46625,0.032639664
3.466875,0.042212606
3.4675,0.043533012
3.468125,0.058057477
3.46875,0.059047782
3.469375,0.04518352
3.47,0.036930983
3.470625,0.032969765
3.47125,0.025377431
3.471875,0.008542256
3.4725,0.002930531
3.473125,0.001610125
3.47375,0.011513169
3.474375,0.012503474
3.475,0.002270328
3.475625,-0.001030687
3.47625,-0.000370484
3.476875,0.006561647
3.4775,0.00491114
3.478125,-0.004331701
3.47875,-0.013904644
3.479375,-0.008953122
3.48,-0.007302615
3.480625,-0.013574543
3.48125,-0.01291434
3.481875,0.00260043
3.4825,0.006891749
3.483125,-0.001030687
3.48375,-0.016215354
3.484375,-0.007962818
3.485,-0.001360788
3.485625,-0.002351093
3.48625,0.010522865
3.486875,0.018115199
3.4875,0.012833575
3.488125,0.001280024
3.48875,-0.011593934
3.489375,-0.008623021
3.49,0.001610125
3.490625,0.00722185
3.49125,0.006561647
3.491875,0.012173372
3.4925,0.017454996
3.493125,0.009202459
3.49375,0.009532561
3.494375,0.008542256
3.495,-0.000700585
3.495625,-0.010273528
3.49625,-0.011263832
3.496875,-0.008623021
3.4975,-0.014234746
3.498125,-0.012254137
3.49875,-0.004331701
3.499375,-4.04E-05
3.5,-0.005982209
3.500625,-0.012584238
3.50125,-0.002351093
3.501875,0.004250937
3.5025,-0.004331701
3.503125,-0.014894949
3.50375,-0.010933731
3.504375,-0.005322006
3.505,0.007882053
3.505625,0.026367736
3.50625,0.030659055
3.506875,0.020425909
3.5075,0.024717228
3.508125,0.027688142
3.50875,0.025707533
3.509375,0.015804489
3.51,0.020425909
3.510625,0.032639664
3.51125,0.062678898
3.511875,0.062678898
3.5125,0.044193215
3.513125,0.034290171
3.51375,0.04749423
3.514375,0.044853418
3.515,0.011843271
3.515625,-0.004991904
3.51625,-0.002020991
3.516875,-0.012584238
3.5175,-0.019846471
3.518125,-0.010273528
3.51875,0.011513169
3.519375,0.021746315
3.52,0.010192763
3.520625,-0.001030687
3.52125,-0.0040016
3.521875,-0.008953122
3.5225,-0.007632716
3.523125,-0.021166877
3.52375,-0.041963269
3.524375,-0.036021443
3.525,-0.014234746
3.525625,0.005241241
3.52625,-0.003671498
3.526875,-0.016875557
3.5275,-0.014894949
3.528125,0.013163677
3.52875,0.023066721
3.529375,0.017454996
3.53,0.024717228
3.530625,0.042212606
3.53125,0.038911592
3.531875,0.039571795
3.5325,0.05409626
3.533125,0.063669202
3.53375,0.061358492
3.534375,0.068620724
3.535,0.074562551
3.535625,0.067960521
3.53625,0.067960521
3.536875,0.071591638
3.5375,0.071921739
3.538125,0.079183972
3.53875,0.078193667
3.539375,0.071921739
3.54,0.057397274
3.540625,0.047824332
3.54125,0.040892201
3.541875,0.029998852
3.5425,0.021416214
3.543125,0.023396822
3.54375,0.021416214
3.544375,0.018115199
3.545,0.019765706
3.545625,0.016794793
3.54625,0.018115199
3.546875,0.009532561
3.5475,0.004250937
3.548125,0.007882053
3.54875,0.014484083
3.549375,0.024717228
3.55,0.048154433
3.550625,0.045843723
3.55125,0.031649359
3.551875,0.027027939
3.5525,0.030328953
3.553125,0.039241693
3.55375,0.045513621
3.554375,0.033629968
3.555,0.025377431
3.555625,0.017454996
3.55625,0.021746315
3.556875,0.032309562
3.5575,0.059707985
3.558125,0.068950826
3.55875,0.080174276
3.559375,0.075552855
3.56,0.075222754
3.560625,0.07885387
3.56125,0.065649811
3.561875,0.039241693
3.5625,0.021746315
3.563125,0.024057025
3.56375,0.039571795
3.564375,0.055086564
3.565,0.070601333
3.565625,0.064329405
3.56625,0.060698289
3.566875,0.06102839
3.5675,0.05871768
3.568125,0.059707985
3.56875,0.046834027
3.569375,0.042872809
3.57,0.037591186
3.570625,0.04518352
3.57125,0.059047782
3.571875,0.070601333
3.5725,0.06763042
3.573125,0.069611029
3.57375,0.065979913
3.574375,0.073572246
3.575,0.075882957
3.575625,0.062678898
3.57625,0.050795245
3.576875,0.063999304
3.5775,0.073902348
3.578125,0.068950826
3.57875,0.064329405
3.579375,0.06763042
3.58,0.068290623
3.580625,0.059707985
3.58125,0.060698289
3.581875,0.080174276
3.5825,0.066970217
3.583125,0.045843723
3.58375,0.031319258
3.584375,0.040892201
3.585,0.042212606
3.585625,0.047824332
3.58625,0.052445752
3.586875,0.04518352
3.5875,0.041882505
3.588125,0.030328953
3.58875,0.024057025
3.589375,0.033299867
3.59,0.033299867
3.590625,0.04518352
3.59125,0.036930983
3.591875,0.035610577
3.5925,0.046834027
3.593125,0.031649359
3.59375,0.025377431
3.594375,0.015804489
3.595,0.011513169
3.595625,0.010852966
3.59625,0.014153981
3.596875,0.023066721
3.5975,0.028348345
3.598125,0.04749423
3.59875,0.077533464
3.599375,0.098659958
3.6,0.089747219
3.600625,0.054426361
3.60125,0.032309562
3.601875,0.003590734
3.6025,0.016794793
3.603125,0.032969765
3.60375,0.040562099
3.604375,0.056737071
3.605,0.049474839
3.605625,0.062678898
3.60625,0.063339101
3.606875,0.024387127
3.6075,0.014484083
3.608125,0.009862662
3.60875,0.013493778
3.609375,0.020095808
3.61,0.024057025
3.610625,0.028678446
3.61125,0.017785097
3.611875,0.013493778
3.6125,0.007551952
3.613125,0.010522865
3.61375,0.008542256
3.614375,0.002270328
3.615,-0.010273528
3.615625,-0.023807688
3.61625,-0.0264485
3.616875,-0.041633168
3.6175,-0.051536212
3.618125,-0.045594386
3.61875,-0.032720428
3.619375,-0.025788297
3.62,-0.034040834
3.620625,-0.049225502
3.62125,-0.061439256
3.621875,-0.058798445
3.6225,-0.058468343
3.623125,-0.070351996
3.62375,-0.081575446
3.624375,-0.079264736
3.625,-0.081575446
3.625625,-0.07563362
3.62625,-0.073653011
3.626875,-0.061109155
3.6275,-0.063419865
3.628125,-0.073653011
3.62875,-0.074313214
3.629375,-0.035031138
3.63,-0.009613325
3.630625,0.004581038
3.63125,-0.003341397
3.631875,0.000949922
3.6325,-0.00631231
3.633125,-0.010933731
3.63375,-0.014564847
3.634375,-0.000370484
3.635,0.011513169
3.635625,0.014484083
3.63625,0.024057025
3.636875,0.037591186
3.6375,0.067300318
3.638125,0.08116458
3.63875,0.075882957
3.639375,0.077863566
3.64,0.070271232
3.640625,0.07654316
3.64125,0.088096711
3.641875,0.069280927
3.6425,0.067960521
3.643125,0.067960521
3.64375,0.054756462
3.644375,0.045513621
3.645,0.050795245
3.645625,0.060368188
3.64625,0.055416665
3.646875,0.041552404
3.6475,0.028018243
3.648125,0.021416214
3.64875,0.02504733
3.649375,0.024057025
3.65,0.030328953
3.650625,0.010522865
3.65125,0.015474387
3.651875,0.021746315
3.6525,0.011513169
3.653125,-0.011593934
3.65375,-0.014234746
3.654375,-0.018195963
3.655,-0.014564847
3.655625,-0.010273528
3.65625,-0.01291434
3.656875,-0.030079616
3.6575,-0.029419413
3.658125,-0.017205659
3.65875,-0.004661803
3.659375,-0.00631231
3.66,-0.003671498
3.660625,-0.014234746
3.66125,-0.025128094
3.661875,-0.029749515
3.6625,-0.0264485
3.663125,-0.019516369
3.66375,-0.018526065
3.664375,-0.036681646
3.665,-0.045594386
3.665625,-0.048565299
3.66625,-0.051536212
3.666875,-0.047905096
3.6675,-0.043283675
3.668125,-0.034701037
3.66875,-0.054177024
3.669375,-0.037341849
3.67,-0.014234746
3.670625,-0.008292919
3.67125,-0.022157181
3.671875,-0.034040834
3.6725,-0.044934183
3.673125,-0.050545908
3.67375,-0.047244893
3.674375,-0.041963269
3.675,-0.030739819
3.675625,-0.012584238
3.67625,-0.01522505
3.676875,-0.022487282
3.6775,-0.034701037
3.678125,-0.025128094
3.67875,-0.009613325
3.679375,-0.023477587
3.68,-0.021496978
3.680625,-0.020176572
3.68125,-0.033380631
3.681875,-0.066390778
3.6825,-0.054177024
3.683125,-0.036021443
3.68375,-0.039652559
3.684375,-0.0264485
3.685,-0.041303066
3.685625,-0.061439256
3.68625,-0.070351996
3.686875,-0.069361692
3.6875,-0.062429561
3.688125,-0.072332605
3.68875,-0.084216258
3.689375,-0.074313214
3.69,-0.057478039
3.690625,-0.061439256
3.69125,-0.082235649
3.691875,-0.081575446
3.6925,-0.077614229
3.693125,-0.083556055
3.69375,-0.088177476
3.694375,-0.068701489
3.695,-0.047905096
3.695625,-0.021827079
3.69625,0.014153981
3.696875,0.024057025
3.6975,0.007882053
3.698125,0.000619821
3.69875,0.022406518
3.699375,0.060368188
3.7,0.105922191
3.700625,0.1303497
3.70125,0.144874165
3.701875,0.154447108
3.7025,0.182175631
3.703125,0.219146996
3.70375,0.262060188
3.704375,0.287478001
3.705,0.312565713
3.705625,0.324119265
3.70625,0.341944745
3.706875,0.364721746
3.7075,0.437013969
3.708125,0.463091985
3.70875,0.510626598
3.709375,0.530432686
3.71,0.55155918
3.710625,0.559811717
3.71125,0.568394356
3.711875,0.581598415
3.7125,0.565753544
3.713125,0.568064254
3.71375,0.587540241
3.714375,0.587870343
3.715,0.592821865
3.715625,0.58291882
3.71625,0.595462676
3.716875,0.591501459
3.7175,0.571035167
3.718125,0.541656136
3.71875,0.51788883
3.719375,0.505014873
3.72,0.483888378
3.720625,0.460121072
3.72125,0.42612062
3.721875,0.393440575
3.7225,0.370993674
3.723125,0.33633302
3.72375,0.302992771
3.724375,0.269652522
3.725,0.247535723
3.725625,0.200331212
3.72625,0.136291526
3.726875,0.100310466
3.7275,0.085125798
3.728125,0.073572246
3.72875,0.05409626
3.729375,0.061688593
3.73,0.059047782
3.730625,0.023396822
3.73125,-0.00169089
3.731875,-0.019846471
3.7325,-0.04658469
3.733125,-0.060779053
3.73375,-0.090488186
3.734375,-0.102371839
3.735,-0.092798896
3.735625,-0.099400926
3.73625,-0.112274883
3.736875,-0.105342752
3.7375,-0.105342752
3.738125,-0.124158536
3.73875,-0.124488638
3.739375,-0.104682549
3.74,-0.097090215
3.740625,-0.099070824
3.74125,-0.116896304
3.741875,-0.117556507
3.7425,-0.119537116
3.743125,-0.143304422
3.74375,-0.147925842
3.744375,-0.140993711
3.745,-0.133731479
3.745625,-0.147595741
3.74625,-0.138022798
3.746875,-0.13175087
3.7475,-0.15188706
3.748125,-0.157828887
3.74875,-0.146605437
3.749375,-0.136372291
3.75,-0.158819191
3.750625,-0.182256396
3.75125,-0.180275787
3.751875,-0.171363047
3.7525,-0.164100815
3.753125,-0.177634975
3.75375,-0.185227309
3.754375,-0.191169135
3.755,-0.188858425
3.755625,-0.184567106
3.75625,-0.184897207
3.756875,-0.200411977
3.7575,-0.199091571
3.758125,-0.190508933
3.75875,-0.1607998
3.759375,-0.157498785
3.76,-0.15188706
3.760625,-0.168062032
3.76125,-0.189518628
3.761875,-0.196450759
3.7625,-0.18984873
3.763125,-0.175984468
3.76375,-0.158158988
3.764375,-0.16311051
3.765,-0.166741626
3.765625,-0.171032946
3.76625,-0.155848278
3.766875,-0.143304422
3.7675,-0.1383529
3.768125,-0.150896756
3.76875,-0.170042641
3.769375,-0.160469698
3.77,-0.151226857
3.770625,-0.139013103
3.77125,-0.139013103
3.771875,-0.137692697
3.7725,-0.126469247
3.773125,-0.126469247
3.77375,-0.137032494
3.774375,-0.142644219
3.775,-0.145615132
3.775625,-0.147265639
3.77625,-0.140993711
3.776875,-0.140333509
3.7775,-0.148916147
3.778125,-0.161460003
3.77875,-0.151226857
3.779375,-0.132080972
3.78,-0.125148841
3.780625,-0.120197319
3.78125,-0.123828435
3.781875,-0.139673306
3.7825,-0.162120206
3.783125,-0.156838582
3.78375,-0.156508481
3.784375,-0.144624828
3.785,-0.143964625
3.785625,-0.145945234
3.78625,-0.152547263
3.786875,-0.152877365
3.7875,-0.142644219
3.788125,-0.15419777
3.78875,-0.152877365
3.789375,-0.135381986
3.79,-0.14297432
3.790625,-0.144954929
3.79125,-0.147595741
3.791875,-0.135051885
3.7925,-0.104352448
3.793125,-0.097090215
3.79375,-0.098740723
3.794375,-0.112274883
3.795,-0.12944016
3.795625,-0.13175087
3.79625,-0.136372291
3.796875,-0.115245797
3.7975,-0.103692245
3.798125,-0.094779505
3.79875,-0.088837679
3.799375,-0.061109155
3.8,-0.039322458
3.800625,-0.047574994
3.80125,-0.03767195
3.801875,-0.030079616
3.8025,-0.01753576
3.803125,-0.027768906
3.80375,-0.044604081
3.804375,-0.062429561
3.805,-0.070682098
3.805625,-0.060448952
3.80625,-0.04658469
3.806875,-0.047574994
3.8075,-0.026118399
3.808125,-0.025458196
3.80875,-0.012254137
3.809375,-0.0040016
3.81,-4.04E-05
3.810625,0.000619821
3.81125,-0.001360788
3.811875,-0.014894949
3.8125,-0.032060225
3.813125,-0.032060225
3.81375,-0.020506674
3.814375,-0.028429109
3.815,-0.031400022
3.815625,-0.036021443
3.81625,-0.047905096
3.816875,-0.056817836
3.8175,-0.050545908
3.818125,-0.032720428
3.81875,-0.041963269
3.819375,-0.050876009
3.82,-0.052526517
3.820625,-0.045594386
3.82125,-0.039652559
3.821875,-0.031069921
3.8225,-0.032720428
3.823125,-0.055167328
3.82375,-0.074973417
3.824375,-0.064740271
3.825,-0.038662255
3.825625,-0.023477587
3.82625,-0.025458196
3.826875,-0.018195963
3.8275,-0.020176572
3.828125,-0.026118399
3.82875,-0.028429109
3.829375,-0.023147485
3.83,-0.019516369
3.830625,-0.016545456
3.83125,-0.018526065
3.831875,-0.020836775
3.8325,-0.010933731
3.833125,0.00491114
3.83375,0.003920835
3.834375,0.016794793
3.835,0.02966875
3.835625,0.027688142
3.83625,0.035280476
3.836875,0.03627078
3.8375,0.050795245
3.838125,0.046173824
3.83875,0.023726924
3.839375,0.032639664
3.84,0.028018243
3.840625,0.034620273
3.84125,0.043202911
3.841875,0.045843723
3.8425,0.037921287
3.843125,0.033299867
3.84375,0.038251389
3.844375,0.027688142
3.845,0.028348345
3.845625,0.021416214
3.84625,0.019435605
3.846875,0.021746315
3.8475,0.01382388
3.848125,0.014484083
3.84875,0.017454996
3.849375,0.023066721
3.85,0.019435605
3.850625,0.010522865
3.85125,0.008872358
3.851875,-0.002020991
3.8525,-0.008953122
3.853125,-0.011593934
3.85375,-0.008953122
3.854375,-0.011263832
3.855,-0.020836775
3.855625,-0.028429109
3.85625,-0.018856166
3.856875,-0.011263832
3.8575,0.004250937
3.858125,0.013163677
3.85875,0.011843271
3.859375,-0.013904644
3.86,-0.023807688
3.860625,-0.024797993
3.86125,-0.028429109
3.861875,-0.036351544
3.8625,-0.036681646
3.863125,-0.026778602
3.86375,-0.013904644
3.864375,-0.017865862
3.865,-0.015555151
3.865625,-0.011924035
3.86625,-0.009613325
3.866875,-0.003671498
3.8675,0.013493778
3.868125,0.031979461
3.86875,0.035940678
3.869375,0.040892201
3.87,0.038911592
3.870625,0.030659055
3.87125,0.016794793
3.871875,-0.003011295
3.8725,-0.0040016
3.873125,0.002270328
3.87375,0.009862662
3.874375,0.011513169
3.875,0.005571343
3.875625,0.006231546
3.87625,-0.007962818
3.876875,-0.011924035
3.8775,-0.020836775
3.878125,-0.022157181
3.87875,-0.011263832
3.879375,-0.000700585
3.88,0.014484083
3.880625,0.01382388
3.88125,-0.002020991
3.881875,-0.009613325
3.8825,-0.023147485
3.883125,-0.0264485
3.88375,-0.034370935
3.884375,-0.029419413
3.885,-0.029089312
3.885625,-0.033380631
3.88625,-0.040312762
3.886875,-0.04658469
3.8875,-0.047244893
3.888125,-0.038662255
3.88875,-0.018856166
3.889375,-0.000700585
3.89,-0.000370484
3.890625,-0.008953122
3.89125,-0.018195963
3.891875,-0.017865862
3.8925,-0.006972513
3.893125,-0.000370484
3.89375,0.010192763
3.894375,0.018115199
3.895,0.014484083
3.895625,0.001940227
3.89625,0.008872358
3.896875,0.02504733
3.8975,0.008212155
3.898125,-0.009613325
3.89875,-0.006642412
3.899375,0.002270328
3.9,0.007551952
3.900625,0.004581038
3.90125,0.010192763
3.901875,0.013163677
3.9025,0.016464691
3.903125,0.013493778
3.90375,0.02735804
3.904375,0.029008548
3.905,0.025377431
3.905625,0.020756011
3.90625,0.005571343
3.906875,-0.013574543
3.9075,-0.014234746
3.908125,-0.010603629
3.90875,0.002270328
3.909375,-4.04E-05
3.91,-0.010273528
3.910625,-0.0264485
3.91125,-0.034370935
3.911875,-0.016875557
3.9125,0.000619821
3.913125,-0.00169089
3.91375,-0.010933731
3.914375,-0.008623021
3.915,0.005901444
3.915625,-0.003011295
3.91625,-0.007962818
3.916875,-0.022817384
3.9175,-0.032720428
3.918125,-0.036681646
3.91875,-0.038662255
3.919375,-0.043283675
3.92,-0.0488954
3.920625,-0.043283675
3.92125,-0.038992356
3.921875,-0.027768906
3.9225,-0.018195963
3.923125,-0.01291434
3.92375,-0.013904644
3.924375,-0.0264485
3.925,-0.036021443
3.925625,-0.044604081
3.92625,-0.033380631
3.926875,-0.024467891
3.9275,-0.030409718
3.928125,-0.034040834
3.92875,-0.045924487
3.929375,-0.051536212
3.93,-0.047574994
3.930625,-0.044604081
3.93125,-0.048235197
3.931875,-0.042953574
3.9325,-0.045924487
3.933125,-0.045594386
3.93375,-0.04427398
3.934375,-0.034701037
3.935,-0.040312762
3.935625,-0.038662255
3.93625,-0.022157181
3.936875,-0.011924035
3.9375,-0.013904644
3.938125,-0.016875557
3.93875,-0.025788297
3.939375,-0.032390327
3.94,-0.0488954
3.940625,-0.049225502
3.94125,-0.037341849
3.941875,-0.02875921
3.9425,-0.028099007
3.943125,-0.029749515
3.94375,-0.016875557
3.944375,-0.010933731
3.945,-0.015885253
3.945625,-0.025458196
3.94625,-0.029419413
3.946875,-0.020506674
3.9475,-0.022487282
3.948125,-0.023807688
3.94875,-0.03767195
3.949375,-0.05549743
3.95,-0.06011885
3.950625,-0.064080068
3.95125,-0.064080068
3.951875,-0.069691793
3.9525,-0.056487734
3.953125,-0.049225502
3.95375,-0.052196415
3.954375,-0.047905096
3.955,-0.058138242
3.955625,-0.073653011
3.95625,-0.085206562
3.956875,-0.099400926
3.9575,-0.089497882
3.958125,-0.072662706
3.95875,-0.059458647
3.959375,-0.06903159
3.96,-0.081575446
3.960625,-0.085536664
3.96125,-0.087187171
3.961875,-0.091148389
3.9625,-0.083886157
3.963125,-0.085536664
3.96375,-0.08916778
3.964375,-0.084876461
3.965,-0.062759662
3.965625,-0.053186719
3.96625,-0.062099459
3.966875,-0.059458647
3.9675,-0.059458647
3.968125,-0.067711184
3.96875,-0.078604533
3.969375,-0.069691793
3.97,-0.064740271
3.970625,-0.040312762
3.97125,-0.034701037
3.971875,-0.041303066
3.9725,-0.047905096
3.973125,-0.037011747
3.97375,-0.023477587
3.974375,-0.019186268
3.975,-0.007632716
3.975625,-0.002681194
3.97625,-0.010933731
3.976875,-0.022817384
3.9775,-0.023477587
3.978125,-0.026118399
3.97875,-0.026778602
3.979375,-0.012254137
3.98,0.000949922
3.980625,-0.004331701
3.98125,-0.022817384
3.981875,-0.018856166
3.9825,-0.016545456
3.983125,-0.016215354
3.98375,-0.034701037
3.984375,-0.027768906
3.985,-0.016875557
3.985625,-0.007632716
3.98625,-0.013244441
3.986875,-0.025788297
3.9875,-0.044604081
3.988125,-0.047574994
3.98875,-0.04658469
3.989375,-0.033380631
3.99,-0.038002052
3.990625,-0.040312762
3.99125,-0.03536124
3.991875,-0.02413779
3.9925,-0.0264485
3.993125,-0.048565299
3.99375,-0.051536212
3.994375,-0.04427398
3.995,-0.0264485
3.995625,-0.005982209
3.99625,0.004581038
3.996875,0.006891749
3.9975,-0.00631231
3.998125,-0.01291434
3.99875,-0.000700585
3.999375,0.008872358
4,0.003590734
4.000625,-0.011263832
4.00125,-0.001030687
4.001875,0.016464691
4.0025,0.023726924
4.003125,0.029008548
4.00375,0.026697837
4.004375,0.014814184
4.005,0.006891749
4.005625,-0.0040016
4.00625,-0.004661803
4.006875,-0.01291434
4.0075,-0.019846471
4.008125,-0.021827079
4.00875,-0.014564847
4.009375,-0.027438805
4.01,-0.038332153
4.010625,-0.030409718
4.01125,-0.03305053
4.011875,-0.040972965
4.0125,-0.045594386
4.013125,-0.04427398
4.01375,-0.038332153
4.014375,-0.049225502
4.015,-0.057147937
4.015625,-0.069361692
4.01625,-0.071012199
4.016875,-0.086196867
4.0175,-0.097420317
4.018125,-0.072992808
4.01875,-0.041963269
4.019375,-0.018856166
4.02,0.001280024
4.020625,-0.004661803
4.02125,-0.023147485
4.021875,-0.03305053
4.0225,-0.030409718
4.023125,-0.019516369
4.02375,-0.013574543
4.024375,-0.016875557
4.025,-0.01753576
4.025625,-0.024467891
4.02625,-0.029089312
4.026875,-0.008953122
4.0275,0.005241241
4.028125,0.014484083
4.02875,0.003920835
4.029375,-0.002681194
4.03,0.005571343
4.030625,0.014153981
4.03125,0.02273662
4.031875,0.032639664
4.0325,0.031319258
4.033125,0.015144286
4.03375,-0.002351093
4.034375,-0.009283223
4.035,-0.014894949
4.035625,-0.013244441
4.03625,-0.019186268
4.036875,-0.011924035
4.0375,0.002930531
4.038125,0.018775402
4.03875,0.024057025
4.039375,0.010522865
4.04,-0.007632716
4.040625,-0.007632716
4.04125,0.003590734
4.041875,0.015474387
4.0425,0.016794793
4.043125,0.015474387
4.04375,0.016464691
4.044375,0.023066721
4.045,0.036930983
4.045625,0.030328953
4.04625,0.024717228
4.046875,0.023396822
4.0475,0.027688142
4.048125,0.037261084
4.04875,0.041222302
4.049375,0.042212606
4.05,0.044853418
4.050625,0.050135042
4.05125,0.044193215
4.051875,0.029998852
4.0525,0.028018243
4.053125,0.017454996
4.05375,0.01382388
4.054375,0.017124894
4.055,0.02273662
4.055625,0.037921287
4.05625,0.046173824
4.056875,0.03627078
4.0575,0.032969765
4.058125,0.036600881
4.05875,0.044193215
4.059375,0.035610577
4.06,0.028348345
4.060625,0.0184453
4.06125,0.011843271
4.061875,0.012833575
4.0625,0.016794793
4.063125,0.028018243
4.06375,0.028018243
4.064375,0.025707533
4.065,0.051125346
4.065625,0.063008999
4.06625,0.075882957
4.066875,0.054756462
4.0675,0.036600881
4.068125,0.035940678
4.06875,0.023066721
4.069375,0.020425909
4.07,0.024387127
4.070625,0.045843723
4.07125,0.062348796
4.071875,0.052115651
4.0725,0.03627078
4.073125,0.023726924
4.07375,0.025377431
4.074375,0.026697837
4.075,0.022406518
4.075625,0.031649359
4.07625,0.034290171
4.076875,0.023396822
4.0775,0.008872358
4.078125,0.015804489
4.07875,0.02735804
4.079375,0.046503926
4.08,0.055416665
4.080625,0.056076868
4.08125,0.059377883
4.081875,0.051455448
4.0825,0.052115651
4.083125,0.048484534
4.08375,0.02966875
4.084375,0.038911592
4.085,0.051785549
4.085625,0.064989608
4.08625,0.066970217
4.086875,0.055086564
4.0875,0.045513621
4.088125,0.041552404
4.08875,0.039241693
4.089375,0.05871768
4.09,0.083805392
4.090625,0.101630872
4.09125,0.100310466
4.091875,0.094368639
4.0925,0.074562551
4.093125,0.05871768
4.09375,0.058057477
4.094375,0.061688593
4.095,0.057397274
4.095625,0.042542708
4.09625,0.05640697
4.096875,0.062678898
4.0975,0.063999304
4.098125,0.073902348
4.09875,0.072251841
4.099375,0.072581942
4.1,0.070601333
4.100625,0.062018695
4.10125,0.076873261
4.101875,0.077533464
4.1025,0.074562551
4.103125,0.060698289
4.10375,0.04980494
4.104375,0.04980494
4.105,0.064659507
4.105625,0.088096711
4.10625,0.097339553
4.106875,0.09238803
4.1075,0.086116102
4.108125,0.080174276
4.10875,0.083805392
4.109375,0.06531971
4.11,0.050135042
4.110625,0.053436057
4.11125,0.064659507
4.111875,0.063008999
4.1125,0.050465143
4.113125,0.043202911
4.11375,0.060698289
4.114375,0.072251841
4.115,0.077533464
4.115625,0.067300318
4.11625,0.06994113
4.116875,0.072912044
4.1175,0.086776305
4.118125,0.098329857
4.11875,0.103281379
4.119375,0.117145641
4.12,0.108232901
4.120625,0.103611481
4.12125,0.096349248
4.121875,0.082815088
4.1225,0.084795697
4.123125,0.093048233
4.12375,0.094038538
4.124375,0.09238803
4.125,0.076873261
4.125625,0.080504377
4.12625,0.091067625
4.126875,0.095358944
4.1275,0.09667935
4.128125,0.103281379
4.12875,0.11021351
4.129375,0.103611481
4.13,0.099650263
4.130625,0.098659958
4.13125,0.086446204
4.131875,0.076213058
4.1325,0.056737071
4.133125,0.03858149
4.13375,0.030659055
4.134375,0.03396007
4.135,0.03627078
4.135625,0.040892201
4.13625,0.037921287
4.136875,0.040562099
4.1375,0.035280476
4.138125,0.022076417
4.13875,0.013493778
4.139375,0.011183068
4.14,0.012833575
4.140625,0.027688142
4.14125,0.030328953
4.141875,0.041222302
4.1425,0.039571795
4.143125,0.017124894
4.14375,0.011183068
4.144375,0.009862662
4.145,0.018775402
4.145625,0.020756011
4.14625,0.026367736
4.146875,0.02273662
4.1475,0.005241241
4.148125,0.007551952
4.14875,0.016794793
4.149375,0.018115199
4.15,0.025377431
4.150625,0.029998852
4.15125,0.03858149
4.151875,0.011513169
4.1525,-4.04E-05
4.153125,-0.020836775
4.15375,-0.051866314
4.154375,-0.046914791
4.155,-0.040312762
4.155625,-0.029419413
4.15625,-0.015885253
4.156875,-0.025458196
4.1575,-0.029089312
4.158125,-0.02413779
4.15875,-0.002351093
4.159375,-0.008953122
4.16,-0.007302615
4.160625,-0.010933731
4.16125,-0.027108703
4.161875,-0.028429109
4.1625,-0.029089312
4.163125,-0.039982661
4.16375,-0.036681646
4.164375,-0.036351544
4.165,-0.033380631
4.165625,-0.029749515
4.16625,-0.023477587
4.166875,-0.029089312
4.1675,-0.025788297
4.168125,-0.013574543
4.16875,-0.006642412
4.169375,-0.004661803
4.17,0.000619821
4.170625,0.004581038
4.17125,-0.003671498
4.171875,-0.007632716
4.1725,-0.008623021
4.173125,-0.010603629
4.17375,0.000289719
4.174375,0.002930531
4.175,0.010192763
4.175625,0.002930531
4.17625,-0.010273528
4.176875,-0.02413779
4.1775,-0.032060225
4.178125,-0.022817384
4.17875,-0.014894949
4.179375,-0.014564847
4.18,-0.022157181
4.180625,-0.021827079
4.18125,-0.020176572
4.181875,-0.024467891
4.1825,-0.028099007
4.183125,-0.029089312
4.18375,-0.050215806
4.184375,-0.039982661
4.185,-0.038662255
4.185625,-0.047244893
4.18625,-0.047574994
4.186875,-0.030409718
4.1875,-0.002681194
4.188125,0.012833575
4.18875,0.001280024
4.189375,-0.012584238
4.19,-0.03305053
4.190625,-0.031069921
4.19125,-0.020506674
4.191875,-0.005322006
4.1925,0.003920835
4.193125,-0.005982209
4.19375,-0.008292919
4.194375,0.001610125
4.195,0.01382388
4.195625,0.022406518
4.19625,0.042872809
4.196875,0.045513621
4.1975,0.017454996
4.198125,0.001280024
4.19875,0.001280024
4.199375,-0.004661803
4.2,0.006231546
4.200625,0.002930531
4.20125,0.012173372
4.201875,0.003590734
4.2025,0.005241241
4.203125,0.005901444
4.20375,0.000619821
4.204375,-0.002681194
4.205,-0.002681194
4.205625,0.003260633
4.20625,0.006231546
4.206875,-0.013904644
4.2075,-0.01753576
4.208125,-0.033380631
4.20875,-0.036021443
4.209375,-0.027768906
4.21,-0.011263832
4.210625,0.001940227
4.21125,-0.003011295
4.211875,-0.007962818
4.2125,0.000949922
4.213125,0.000949922
4.21375,-0.00631231
4.214375,-0.022157181
4.215,-0.017205659
4.215625,-0.001030687
4.21625,0.007551952
4.216875,0.001280024
4.2175,0.002270328
4.218125,0.014484083
4.21875,0.002930531
4.219375,-0.003011295
4.22,0.002270328
4.220625,0.011183068
4.22125,0.00722185
4.221875,-0.0040016
4.2225,-0.016215354
4.223125,-0.026778602
4.22375,-0.032720428
4.224375,-0.032060225
4.225,-0.033710733
4.225625,-0.02413779
4.22625,-0.025458196
4.226875,-0.023807688
4.2275,-0.030739819
4.228125,-0.029749515
4.22875,-0.023147485
4.229375,-0.014564847
4.23,-0.002681194
4.230625,0.001280024
4.23125,-0.009943426
4.231875,-0.008623021
4.2325,-0.008623021
4.233125,0.008872358
4.23375,0.033299867
4.234375,0.060698289
4.235,0.081494682
4.235625,0.090407422
4.23625,0.089087016
4.236875,0.093708436
4.2375,0.100640567
4.238125,0.11681554
4.23875,0.14388386
4.239375,0.171942486
4.24,0.18415624
4.240625,0.201651618
4.24125,0.229380142
4.241875,0.259419376
4.2425,0.277574957
4.243125,0.289128509
4.24375,0.312895815
4.244375,0.335012614
4.245,0.356469209
4.245625,0.377595704
4.24625,0.400372705
4.246875,0.424140012
4.2475,0.430742041
4.248125,0.442955796
4.24875,0.462101681
4.249375,0.474645537
4.25,0.470354218
4.250625,0.459790971
4.25125,0.476626146
4.251875,0.478606755
4.2525,0.488509799
4.253125,0.496762336
4.25375,0.492801118
4.254375,0.472664928
4.255,0.461441478
4.255625,0.455829753
4.25625,0.438004273
4.256875,0.405324228
4.2575,0.371323776
4.258125,0.336663121
4.25875,0.311245308
4.259375,0.292429524
4.26,0.298041249
4.260625,0.290779016
4.26125,0.272953537
4.261875,0.246545419
4.2625,0.210564358
4.263125,0.176563906
4.26375,0.132990512
4.264375,0.088756914
4.265,0.064659507
4.265625,0.048484534
4.26625,0.053766158
4.266875,0.03858149
4.2675,0.011183068
4.268125,-0.003671498
4.26875,-0.023807688
4.269375,-0.042953574
4.27,-0.058798445
4.270625,-0.065400474
4.27125,-0.076293823
4.271875,-0.086196867
4.2725,-0.084546359
4.273125,-0.082895852
4.27375,-0.086196867
4.274375,-0.094449404
4.275,-0.109634071
4.275625,-0.121187623
4.27625,-0.126799348
4.276875,-0.108643767
4.2775,-0.102701941
4.278125,-0.096760114
4.27875,-0.085536664
4.279375,-0.081245345
4.28,-0.080585142
4.280625,-0.09576981
4.28125,-0.116566202
4.281875,-0.134061581
4.2825,-0.145615132
4.283125,-0.129770261
4.28375,-0.115575898
4.284375,-0.082565751
4.285,-0.06903159
4.285625,-0.087187171
4.28625,-0.09147849
4.286875,-0.09147849
4.2875,-0.09147849
4.288125,-0.101711636
4.28875,-0.104352448
4.289375,-0.087187171
4.29,-0.091148389
4.290625,-0.110954477
4.29125,-0.10699326
4.291875,-0.093128998
4.2925,-0.081905548
4.293125,-0.092468795
4.29375,-0.109634071
4.294375,-0.120857522
4.295,-0.131420769
4.295625,-0.132411073
4.29625,-0.111944782
4.296875,-0.094449404
4.2975,-0.10039123
4.298125,-0.108973869
4.29875,-0.120857522
4.299375,-0.125809044
4.3,-0.129770261
4.300625,-0.131420769
4.30125,-0.12283813
4.301875,-0.130100363
4.3025,-0.126139145
4.303125,-0.128119754
4.30375,-0.123168232
4.304375,-0.132741175
4.305,-0.142314117
4.305625,-0.139343204
4.30625,-0.126469247
4.306875,-0.134391682
4.3075,-0.130100363
4.308125,-0.125148841
4.30875,-0.123828435
4.309375,-0.128119754
4.31,-0.115905999
4.310625,-0.105342752
4.31125,-0.114255492
4.311875,-0.12052742
4.3125,-0.130430464
4.313125,-0.126799348
4.31375,-0.107983564
4.314375,-0.107653463
4.315,-0.102041738
4.315625,-0.105012651
4.31625,-0.101711636
4.316875,-0.103032042
4.3175,-0.098410621
4.318125,-0.089497882
4.31875,-0.092798896
4.319375,-0.092468795
4.32,-0.099731027
4.320625,-0.111944782
4.32125,-0.120857522
4.321875,-0.12052742
4.3225,-0.103362143
4.323125,-0.090488186
4.32375,-0.101051433
4.324375,-0.115905999
4.325,-0.121187623
4.325625,-0.113265188
4.32625,-0.111284579
4.326875,-0.10699326
4.3275,-0.107323361
4.328125,-0.105342752
4.32875,-0.103032042
4.329375,-0.091148389
4.33,-0.083886157
4.330625,-0.085206562
4.33125,-0.090488186
4.331875,-0.083886157
4.3325,-0.08685707
4.333125,-0.085536664
4.33375,-0.094449404
4.334375,-0.085536664
4.335,-0.073983112
4.335625,-0.068371387
4.33625,-0.068041286
4.336875,-0.073983112
4.3375,-0.076293823
4.338125,-0.083556055
4.33875,-0.084546359
4.339375,-0.060779053
4.34,-0.057147937
4.340625,-0.063419865
4.34125,-0.074313214
4.341875,-0.078934634
4.3425,-0.082895852
4.343125,-0.084546359
4.34375,-0.072662706
4.344375,-0.070682098
4.345,-0.082235649
4.345625,-0.093789201
4.34625,-0.086526968
4.346875,-0.07794433
4.3475,-0.082895852
4.348125,-0.081905548
4.34875,-0.071012199
4.349375,-0.063419865
4.35,-0.061109155
4.350625,-0.064740271
4.35125,-0.063089764
4.351875,-0.059458647
4.3525,-0.058138242
4.353125,-0.056487734
4.35375,-0.034040834
4.354375,-0.029419413
4.355,-0.042623472
4.355625,-0.051536212
4.35625,-0.049555603
4.356875,-0.049555603
4.3575,-0.037011747
4.358125,-0.034370935
4.35875,-0.0264485
4.359375,-0.037011747
4.36,-0.042623472
4.360625,-0.045594386
4.36125,-0.039982661
4.361875,-0.022817384
4.3625,-0.016215354
4.363125,-0.026118399
4.36375,-0.03767195
4.364375,-0.053186719
4.365,-0.055167328
4.365625,-0.055827531
4.36625,-0.050215806
4.366875,-0.058798445
4.3675,-0.05780814
4.368125,-0.04658469
4.36875,-0.051206111
4.369375,-0.054507125
4.37,-0.050545908
4.370625,-0.038332153
4.37125,-0.032060225
4.371875,-0.037341849
4.3725,-0.038992356
4.373125,-0.049555603
4.37375,-0.059458647
4.374375,-0.067050981
4.375,-0.060779053
4.375625,-0.056817836
4.37625,-0.05780814
4.376875,-0.054837227
4.3775,-0.058138242
4.378125,-0.054177024
4.37875,-0.036681646
4.379375,-0.008953122
4.38,0.001280024
4.380625,-0.00169089
4.38125,-0.011924035
4.381875,-0.028429109
4.3825,-0.043283675
4.383125,-0.034040834
4.38375,-0.03305053
4.384375,-0.033710733
4.385,-0.022817384
4.385625,-0.005982209
4.38625,0.000949922
4.386875,0.014153981
4.3875,0.020756011
4.388125,0.010192763
4.38875,0.010852966
4.389375,0.013163677
4.39,0.010522865
4.390625,0.00491114
4.39125,-0.003011295
4.391875,0.006891749
4.3925,0.00722185
4.393125,0.003920835
4.39375,0.011843271
4.394375,0.012173372
4.395,0.00722185
4.395625,0.015144286
4.39625,0.029338649
4.396875,0.024387127
4.3975,0.003590734
4.398125,-0.00631231
4.39875,-0.004661803
4.399375,-0.012584238
4.4,-0.023807688
4.400625,-0.024467891
4.40125,-0.012584238
4.401875,-0.014234746
4.4025,-0.031400022
4.403125,-0.022487282
4.40375,0.000289719
4.404375,0.017124894
4.405,0.015474387
4.405625,0.003920835
4.40625,-0.011263832
4.406875,-0.021827079
4.4075,-0.022157181
4.408125,-0.0264485
4.40875,-0.025788297
4.409375,-0.033380631
4.41,-0.031400022
4.410625,-0.031400022
4.41125,-0.040972965
4.411875,-0.046914791
4.4125,-0.048235197
4.413125,-0.038332153
4.41375,-0.028099007
4.414375,-0.028429109
4.415,-0.034370935
4.415625,-0.0488954
4.41625,-0.061769358
4.416875,-0.063089764
4.4175,-0.04658469
4.418125,-0.038332153
4.41875,-0.047574994
4.419375,-0.049225502
4.42,-0.053846922
4.420625,-0.053516821
4.42125,-0.053516821
4.421875,-0.0488954
4.4225,-0.049225502
4.423125,-0.063749967
4.42375,-0.071342301
4.424375,-0.067381083
4.425,-0.056487734
4.425625,-0.040642863
4.42625,-0.038002052
4.426875,-0.031400022
4.4275,-0.038332153
4.428125,-0.043283675
4.42875,-0.046254589
4.429375,-0.043613777
4.43,-0.033380631
4.430625,-0.031730124
4.43125,-0.045264284
4.431875,-0.047244893
4.4325,-0.046914791
4.433125,-0.042623472
4.43375,-0.044604081
4.434375,-0.02875921
4.435,-0.021827079
4.435625,-0.027438805
4.43625,-0.03305053
4.436875,-0.043943878
4.4375,-0.059458647
4.438125,-0.064080068
4.43875,-0.058138242
4.439375,-0.049885705
4.44,-0.061769358
4.440625,-0.06903159
4.44125,-0.072002503
4.441875,-0.058468343
4.4425,-0.047574994
4.443125,-0.046254589
4.44375,-0.040642863
4.444375,-0.03536124
4.445,-0.044934183
4.445625,-0.056487734
4.44625,-0.060779053
4.446875,-0.052196415
4.4475,-0.05549743
4.448125,-0.054177024
4.44875,-0.042953574
4.449375,-0.041303066
4.45,-0.047244893
4.450625,-0.058138242
4.45125,-0.056487734
4.451875,-0.043943878
4.4525,-0.018856166
4.453125,0.006891749
4.45375,0.013493778
4.454375,0.006891749
4.455,0.005901444
4.455625,0.004581038
4.45625,0.000289719
4.456875,0.008542256
4.4575,0.018115199
4.458125,0.010192763
4.45875,0.007882053
4.459375,-0.002351093
4.46,-0.008623021
4.460625,-0.01753576
4.46125,-0.01522505
4.461875,-0.002681194
4.4625,0.012503474
4.463125,0.015804489
4.46375,0.006891749
4.464375,-0.007632716
4.465,-0.011924035
4.465625,-0.01522505
4.46625,-0.023807688
4.466875,-0.044604081
4.4675,-0.053516821
4.468125,-0.063089764
4.46875,-0.083225954
4.469375,-0.087517273
4.47,-0.091148389
4.470625,-0.077284127
4.47125,-0.065400474
4.471875,-0.052856618
4.4725,-0.044604081
4.473125,-0.042953574
4.47375,-0.054837227
4.474375,-0.067050981
4.475,-0.068701489
4.475625,-0.058468343
4.47625,-0.060779053
4.476875,-0.062099459
4.4775,-0.046914791
4.478125,-0.043613777
4.47875,-0.040642863
4.479375,-0.028099007
4.48,-0.014234746
4.480625,-0.002020991
4.48125,0.005901444
4.481875,0.011183068
4.4825,0.015144286
4.483125,0.009202459
4.48375,0.009862662
4.484375,0.036600881
4.485,0.055416665
4.485625,0.06102839
4.48625,0.051125346
4.486875,0.040231998
4.4875,0.02273662
4.488125,0.001940227
4.48875,-0.005322006
4.489375,0.005571343
4.49,0.010852966
4.490625,0.000289719
4.49125,-0.009943426
4.491875,-0.00631231
4.4925,0.003590734
4.493125,0.016464691
4.49375,0.023726924
4.494375,0.012503474
4.495,-0.014894949
4.495625,-0.03305053
4.49625,-0.034370935
4.496875,-0.038992356
4.4975,-0.042623472
4.498125,-0.048565299
4.49875,-0.034040834
4.499375,-0.028099007
4.5,-0.014234746
4.500625,-0.015885253
4.50125,-0.01522505
4.501875,-0.02875921
4.5025,-0.023807688
4.503125,-0.028429109
4.50375,-0.025128094
4.504375,-0.029749515
4.505,-0.031400022
4.505625,-0.035691341
4.50625,-0.024797993
4.506875,-0.009613325
4.5075,-0.002351093
4.508125,0.003260633
4.50875,0.007882053
4.509375,-0.004661803
4.51,-0.016875557
4.510625,-0.015885253
4.51125,-0.013244441
4.511875,-0.023147485
4.5125,-0.02413779
4.513125,-0.008953122
4.51375,0.00260043
4.514375,0.001610125
4.515,0.003260633
4.515625,-0.004661803
4.51625,-0.004661803
4.516875,-0.003011295
4.5175,0.009202459
4.518125,0.016794793
4.51875,0.014814184
4.519375,0.011513169
4.52,-0.004661803
4.520625,-0.015555151
4.52125,-0.024797993
4.521875,-0.03305053
4.5225,-0.011263832
4.523125,0.007551952
4.52375,0.017454996
4.524375,0.015804489
4.525,0.026367736
4.525625,0.033629968
4.52625,0.024387127
4.526875,0.017454996
4.5275,0.002930531
4.528125,0.002930531
4.52875,0.018115199
4.529375,0.027027939
4.53,0.024387127
4.530625,0.021086112
4.53125,0.012833575
4.531875,0.019765706
4.5325,0.012173372
4.533125,0.012173372
4.53375,0.001280024
4.534375,0.024387127
4.535,0.03858149
4.535625,0.030328953
4.53625,0.026367736
4.536875,0.00491114
4.5375,-0.014564847
4.538125,-0.002351093
4.53875,0.008872358
4.539375,0.027688142
4.54,0.029338649
4.540625,0.017124894
4.54125,0.004250937
4.541875,-0.004991904
4.5425,-0.000700585
4.543125,0.008872358
4.54375,0.016464691
4.544375,0.015474387
4.545,0.014814184
4.545625,0.010852966
4.54625,0.009532561
4.546875,0.003260633
4.5475,0.001280024
4.548125,0.000619821
4.54875,-0.003341397
4.549375,-0.004661803
4.55,-0.011263832
4.550625,-0.009943426
4.55125,0.008212155
4.551875,0.019435605
4.5525,0.023396822
4.553125,0.004581038
4.55375,0.003590734
4.554375,0.005571343
4.555,0.006231546
4.555625,0.005241241
4.55625,0.0184453
4.556875,0.018775402
4.5575,0.023066721
4.558125,0.027027939
4.55875,0.031649359
4.559375,0.018115199
4.56,0.014153981
4.560625,-0.004661803
4.56125,-0.023477587
4.561875,-0.030079616
4.5625,-0.01522505
4.563125,-0.007632716
4.56375,-0.008623021
4.564375,-0.010273528
4.565,-0.001360788
4.565625,0.012173372
4.56625,0.025377431
4.566875,0.016794793
4.5675,0.004581038
4.568125,0.002930531
4.56875,0.003920835
4.569375,0.000619821
4.57,-0.007632716
4.570625,-0.024797993
4.57125,-0.04427398
4.571875,-0.056487734
4.5725,-0.049225502
4.573125,-0.034701037
4.57375,-0.01753576
4.574375,-0.011593934
4.575,-0.013904644
4.575625,-0.01753576
4.57625,-0.020836775
4.576875,-0.011593934
4.5775,-0.017205659
4.578125,-0.021496978
4.57875,-0.019516369
4.579375,-0.006642412
4.58,-0.005322006
4.580625,-0.022487282
4.58125,-0.031730124
4.581875,-0.02875921
4.5825,-0.0264485
4.583125,-0.027768906
4.58375,-0.031400022
4.584375,-0.01291434
4.585,0.003590734
4.585625,0.008212155
4.58625,0.01613459
4.586875,0.010852966
4.5875,0.007882053
4.588125,0.001940227
4.58875,-0.003341397
4.589375,0.006231546
4.59,0.004581038
4.590625,-0.003671498
4.59125,-0.001030687
4.591875,0.005901444
4.5925,0.008872358
4.593125,0.010852966
4.59375,0.023726924
4.594375,0.045513621
4.595,0.063339101
4.595625,0.062678898
4.59625,0.056737071
4.596875,0.059047782
4.5975,0.045843723
4.598125,0.030328953
4.59875,0.035610577
4.599375,0.051785549
4.6,0.066640116
4.600625,0.059707985
4.60125,0.051125346
4.601875,0.057727376
4.6025,0.063339101
4.603125,0.063999304
4.60375,0.060698289
4.604375,0.052115651
4.605,0.046503926
4.605625,0.055416665
4.60625,0.060368188
4.606875,0.04980494
4.6075,0.046834027
4.608125,0.057067173
4.60875,0.063999304
4.609375,0.050795245
4.61,0.045843723
4.610625,0.044193215
4.61125,0.039571795
4.611875,0.026697837
4.6125,0.013163677
4.613125,0.011513169
4.61375,0.000289719
4.614375,-0.006642412
4.615,0.000949922
4.615625,0.013163677
4.61625,0.031319258
4.616875,0.035280476
4.6175,0.029998852
4.618125,0.035940678
4.61875,0.037261084
4.619375,0.01382388
4.62,0.000619821
4.620625,0.01382388
4.62125,0.006231546
4.621875,-0.002681194
4.6225,0.028348345
4.623125,0.047164129
4.62375,0.030328953
4.624375,0.031649359
4.625,0.042872809
4.625625,0.057727376
4.62625,0.066310014
4.626875,0.066640116
4.6275,0.066970217
4.628125,0.077863566
4.62875,0.070931435
4.629375,0.06102839
4.63,0.055086564
4.630625,0.04518352
4.63125,0.040562099
4.631875,0.047164129
4.6325,0.045513621
4.633125,0.046834027
4.63375,0.043863114
4.634375,0.044853418
4.635,0.046503926
4.635625,0.053766158
4.63625,0.067960521
4.636875,0.071921739
4.6375,0.054426361
4.638125,0.03396007
4.63875,0.034620273
4.639375,0.049144737
4.64,0.042872809
4.640625,0.035610577
4.64125,0.029338649
4.641875,0.032969765
4.6425,0.029008548
4.643125,0.020756011
4.64375,0.018775402
4.644375,0.012833575
4.645,0.028348345
4.645625,0.026037634
4.64625,0.020095808
4.646875,0.023066721
4.6475,0.024057025
4.648125,0.028348345
4.64875,0.027688142
4.649375,0.029338649
4.65,0.028678446
4.650625,0.02735804
4.65125,0.024387127
4.651875,0.012173372
4.6525,0.019105503
4.653125,0.022406518
4.65375,0.027027939
4.654375,0.026697837
4.655,0.021416214
4.655625,0.019435605
4.65625,0.00491114
4.656875,-0.010933731
4.6575,-0.008953122
4.658125,-0.003341397
4.65875,-0.005322006
4.659375,-0.005322006
4.66,0.009532561
4.660625,0.019105503
4.66125,0.020425909
4.661875,0.019105503
4.6625,0.028018243
4.663125,0.012503474
4.66375,-0.008623021
4.664375,-0.020836775
4.665,-0.011593934
4.665625,-0.003341397
4.66625,-0.005322006
4.666875,-0.013244441
4.6675,-0.014564847
4.668125,-0.022817384
4.66875,-0.02875921
4.669375,-0.026778602
4.67,-0.038992356
4.670625,-0.04658469
4.67125,-0.051866314
4.671875,-0.057478039
4.6725,-0.052196415
4.673125,-0.050215806
4.67375,-0.050215806
4.674375,-0.053186719
4.675,-0.052856618
4.675625,-0.057478039
4.67625,-0.059788749
4.676875,-0.047574994
4.6775,-0.034040834
4.678125,-0.029749515
4.67875,-0.044934183
4.679375,-0.053186719
4.68,-0.05549743
4.680625,-0.059128546
4.68125,-0.051536212
4.681875,-0.055827531
4.6825,-0.050215806
4.683125,-0.051866314
4.68375,-0.037011747
4.684375,-0.016545456
4.685,-0.003341397
4.685625,0.002930531
4.68625,0.011513169
4.686875,0.015804489
4.6875,0.007882053
4.688125,0.019435605
4.68875,0.026037634
4.689375,0.020095808
4.69,0.009532561
4.690625,0.009202459
4.69125,0.000619821
4.691875,-4.04E-05
4.6925,0.013163677
4.693125,0.019105503
4.69375,0.008542256
4.694375,-0.005322006
4.695,-0.002020991
4.695625,0.009532561
4.69625,0.010522865
4.696875,0.017124894
4.6975,0.007882053
4.698125,-0.007632716
4.69875,-0.012584238
4.699375,-0.016875557
4.7,-0.027438805
4.700625,-0.040312762
4.70125,-0.040642863
4.701875,-0.042293371
4.7025,-0.022817384
4.703125,-0.025128094
4.70375,-0.020836775
4.704375,-0.023477587
4.705,-0.024467891
4.705625,-0.014894949
4.70625,-0.007962818
4.706875,-0.016215354
4.7075,-0.026778602
4.708125,-0.028429109
4.70875,-0.018195963
4.709375,-0.023477587
4.71,-0.017865862
4.710625,-0.008953122
4.71125,-0.021166877
4.711875,-0.025458196
4.7125,-0.022817384
4.713125,-0.014564847
4.71375,0.003260633
4.714375,-0.007302615
4.715,0.004581038
4.715625,0.011513169
4.71625,0.024387127
4.716875,0.026367736
4.7175,0.03396007
4.718125,0.0184453
4.71875,-0.000700585
4.719375,-0.011263832
4.72,-0.021166877
4.720625,-0.023477587
4.72125,-0.024467891
4.721875,-0.016875557
4.7225,-0.007632716
4.723125,-0.011263832
4.72375,-0.012254137
4.724375,-0.021496978
4.725,-0.027108703
4.725625,-0.02413779
4.72625,-0.022487282
4.726875,-0.01753576
4.7275,-0.028099007
4.728125,-0.038332153
4.72875,-0.038662255
4.729375,-0.034040834
4.73,-0.032720428
4.730625,-0.047244893
4.73125,-0.063749967
4.731875,-0.058138242
4.7325,-0.046254589
4.733125,-0.043283675
4.73375,-0.038662255
4.734375,-0.039652559
4.735,-0.053516821
4.735625,-0.057147937
4.73625,-0.047905096
4.736875,-0.029419413
4.7375,-0.017205659
4.738125,-0.014894949
4.73875,-0.012254137
4.739375,-0.009283223
4.74,-0.025128094
4.740625,-0.0264485
4.74125,-0.053846922
4.741875,-0.062759662
4.7425,-0.066390778
4.743125,-0.056487734
4.74375,-0.046254589
4.744375,-0.044934183
4.745,-0.042953574
4.745625,-0.058138242
4.74625,-0.050215806
4.746875,-0.041303066
4.7475,-0.03305053
4.748125,-0.027108703
4.74875,-0.03767195
4.749375,-0.064740271
4.75,-0.084546359
4.750625,-0.082895852
4.75125,-0.057147937
4.751875,-0.042623472
4.7525,-0.038002052
4.753125,-0.050545908
4.75375,-0.064080068
4.754375,-0.071012199
4.755,-0.065730575
4.755625,-0.022487282
4.75625,0.010192763
4.756875,0.012833575
4.7575,0.010192763
4.758125,0.003260633
4.75875,0.032309562
4.759375,0.066970217
4.76,0.106912495
4.760625,0.140252744
4.76125,0.162699644
4.761875,0.172602689
4.7625,0.18184553
4.763125,0.191418473
4.76375,0.211884764
4.764375,0.243244404
4.765,0.286157596
4.765625,0.326760077
4.76625,0.357789615
4.766875,0.375945196
4.7675,0.398722198
4.768125,0.413246663
4.76875,0.422159403
4.769375,0.447907318
4.77,0.487189393
4.770625,0.519209236
4.77125,0.524160758
4.771875,0.516238323
4.7725,0.520859743
4.773125,0.532743396
4.77375,0.53571431
4.774375,0.517228627
4.775,0.508315887
4.775625,0.51788883
4.77625,0.524160758
4.776875,0.530102585
4.7775,0.522840352
4.778125,0.511286801
4.77875,0.483558277
4.779375,0.447247115
4.78,0.415227272
4.780625,0.384857936
4.78125,0.348216673
4.781875,0.328410584
4.7825,0.309264699
4.783125,0.285167291
4.78375,0.24918623
4.784375,0.234001563
4.785,0.219477098
4.785625,0.199010806
4.78625,0.162369543
4.786875,0.122427265
4.7875,0.093708436
4.788125,0.06763042
4.78875,0.028018243
4.789375,0.00722185
4.79,0.001280024
4.790625,-0.004991904
4.79125,-0.021166877
4.791875,-0.044934183
4.7925,-0.057147937
4.793125,-0.074313214
4.79375,-0.095439708
4.794375,-0.096430013
4.795,-0.082565751
4.795625,-0.074643315
4.79625,-0.06903159
4.796875,-0.06441017
4.7975,-0.064740271
4.798125,-0.071342301
4.79875,-0.090818287
4.799375,-0.111284579
4.8,-0.122177927
4.800625,-0.126469247
4.80125,-0.118546811
4.801875,-0.115245797
4.8025,-0.112274883
4.803125,-0.114915695
4.80375,-0.106333057
4.804375,-0.107653463
4.805,-0.115575898
4.805625,-0.120197319
4.80625,-0.117886608
4.806875,-0.108973869
4.8075,-0.107323361
4.808125,-0.111944782
4.80875,-0.105342752
4.809375,-0.115905999
4.81,-0.114915695
4.810625,-0.117556507
4.81125,-0.122177927
4.811875,-0.134061581
4.8125,-0.146935538
4.813125,-0.145945234
4.81375,-0.142644219
4.814375,-0.135051885
4.815,-0.120857522
4.815625,-0.12283813
4.81625,-0.127459551
4.816875,-0.133401378
4.8175,-0.127789653
4.818125,-0.112274883
4.81875,-0.107653463
4.819375,-0.110954477
4.82,-0.106663158
4.820625,-0.09147849
4.82125,-0.083225954
4.821875,-0.091808592
4.8225,-0.104022346
4.823125,-0.123498333
4.82375,-0.112274883
4.824375,-0.105342752
4.825,-0.109634071
4.825625,-0.102371839
4.82625,-0.114585594
4.826875,-0.115905999
4.8275,-0.113595289
4.828125,-0.107653463
4.82875,-0.107323361
4.829375,-0.105012651
4.83,-0.113925391
4.830625,-0.126139145
4.83125,-0.135051885
4.831875,-0.150236553
4.8325,-0.157828887
4.833125,-0.137032494
4.83375,-0.140003407
4.834375,-0.142644219
4.835,-0.132741175
4.835625,-0.142314117
4.83625,-0.139343204
4.836875,-0.139673306
4.8375,-0.131420769
4.838125,-0.118876913
4.83875,-0.107653463
4.839375,-0.101051433
4.84,-0.106002955
4.840625,-0.10930397
4.84125,-0.11161468
4.841875,-0.093459099
4.8425,-0.092798896
4.843125,-0.089497882
4.84375,-0.083886157
4.844375,-0.082895852
4.845,-0.064080068
4.845625,-0.053846922
4.84625,-0.038662255
4.846875,-0.023477587
4.8475,-0.022157181
4.848125,-0.020836775
4.84875,-0.018195963
4.849375,-0.010603629
4.85,-0.0040016
4.850625,-0.01522505
4.85125,-0.022817384
4.851875,-0.033380631
4.8525,-0.045264284
4.853125,-0.054507125
4.85375,-0.038332153
4.854375,-0.027108703
4.855,-0.031069921
4.855625,-0.038002052
4.85625,-0.045924487
4.856875,-0.053516821
4.8575,-0.051536212
4.858125,-0.048235197
4.85875,-0.045594386
4.859375,-0.056817836
4.86,-0.074313214
4.860625,-0.092138693
4.86125,-0.085206562
4.861875,-0.072992808
4.8625,-0.092468795
4.863125,-0.102701941
4.86375,-0.105672854
4.864375,-0.092468795
4.865,-0.074973417
4.865625,-0.081905548
4.86625,-0.097420317
4.866875,-0.120197319
4.8675,-0.104352448
4.868125,-0.063749967
4.86875,-0.048235197
4.869375,-0.05780814
4.87,-0.067381083
4.870625,-0.067711184
4.87125,-0.078604533
4.871875,-0.081575446
4.8725,-0.060448952
4.873125,-0.048565299
4.87375,-0.042293371
4.874375,-0.033380631
4.875,-0.040972965
4.875625,-0.043613777
4.87625,-0.043283675
4.876875,-0.042623472
4.8775,-0.046914791
4.878125,-0.052526517
4.87875,-0.067381083
4.879375,-0.067711184
4.88,-0.042953574
4.880625,-0.038662255
4.88125,-0.0488954
4.881875,-0.047574994
4.8825,-0.052856618
4.883125,-0.061109155
4.88375,-0.068371387
4.884375,-0.063749967
4.885,-0.062099459
4.885625,-0.060448952
4.88625,-0.05780814
4.886875,-0.058138242
4.8875,-0.066060677
4.888125,-0.076293823
4.88875,-0.077614229
4.889375,-0.061769358
4.89,-0.075303518
4.890625,-0.078274431
4.89125,-0.059458647
4.891875,-0.045594386
4.8925,-0.045264284
4.893125,-0.028099007
4.89375,-0.023807688
4.894375,-0.027438805
4.895,-0.025128094
4.895625,-0.039322458
4.89625,-0.023807688
4.896875,-0.01291434
4.8975,-0.007962818
4.898125,-0.010933731
4.89875,-0.020836775
4.899375,-0.024467891
4.9,-0.019186268
4.900625,-0.020506674
4.90125,-0.024797993
4.901875,-0.032060225
4.9025,-0.027768906
4.903125,-0.025128094
4.90375,-0.018195963
4.904375,-0.023807688
4.905,-0.040312762
4.905625,-0.032060225
4.90625,-0.016875557
4.906875,-0.019846471
4.9075,-0.040642863
4.908125,-0.054837227
4.90875,-0.03767195
4.909375,-0.035691341
4.91,-0.026118399
4.910625,-0.026778602
4.91125,-0.03536124
4.911875,-0.04427398
4.9125,-0.050876009
4.913125,-0.043613777
4.91375,-0.047244893
4.914375,-0.038662255
4.915,-0.019846471
4.915625,-0.031730124
4.91625,-0.032390327
4.916875,-0.028429109
4.9175,-0.018526065
4.918125,-0.019516369
4.91875,-0.008623021
4.919375,0.017785097
4.92,0.02273662
4.920625,0.004250937
4.92125,-0.027438805
4.921875,-0.037011747
4.9225,-0.031069921
4.923125,-0.041633168
4.92375,-0.041963269
4.924375,-0.033380631
4.925,-0.027768906
4.925625,-0.011263832
4.92625,-0.008623021
4.926875,-0.011593934
4.9275,-0.024797993
4.928125,-0.030739819
4.92875,-0.0264485
4.929375,-0.027768906
4.93,-0.041633168
4.930625,-0.051536212
4.93125,-0.062759662
4.931875,-0.068371387
4.9325,-0.079264736
4.933125,-0.057147937
4.93375,-0.021496978
4.934375,-4.04E-05
4.935,-0.005652107
4.935625,-0.000700585
4.93625,-0.009283223
4.936875,-0.025458196
4.9375,-0.029749515
4.938125,-0.037011747
4.93875,-0.021827079
4.939375,0.005241241
4.94,0.00260043
4.940625,-0.012584238
4.94125,-0.028429109
4.941875,-0.013904644
4.9425,0.001940227
4.943125,-0.005322006
4.94375,-0.014234746
4.944375,-0.014564847
4.945,-0.003341397
4.945625,-0.007962818
4.94625,-0.015555151
4.946875,-0.023147485
4.9475,-0.044934183
4.948125,-0.050876009
4.94875,-0.051536212
4.949375,-0.050545908
4.95,-0.039652559
4.950625,-0.021827079
4.95125,-0.008953122
4.951875,-0.021496978
4.9525,-0.039322458
4.953125,-0.052856618
4.95375,-0.049885705
4.954375,-0.0488954
4.955,-0.060779053
4.955625,-0.060448952
4.95625,-0.052196415
4.956875,-0.056487734
4.9575,-0.062099459
4.958125,-0.061769358
4.95875,-0.049555603
4.959375,-0.062759662
4.96,-0.064080068
4.960625,-0.050545908
4.96125,-0.036351544
4.961875,-0.02413779
4.9625,-0.0264485
4.963125,-0.025458196
4.96375,-0.008953122
4.964375,-0.003011295
4.965,-0.008953122
4.965625,-0.027768906
4.96625,-0.037341849
4.966875,-0.048565299
4.9675,-0.039982661
4.968125,-0.038332153
4.96875,-0.042293371
4.969375,-0.041303066
4.97,-0.041633168
4.970625,-0.035031138
4.97125,-0.021496978
4.971875,-0.005652107
4.9725,0.005901444
4.973125,0.003260633
4.97375,0.005241241
4.974375,0.014814184
4.975,0.004250937
4.975625,-0.018195963
4.97625,-0.030409718
4.976875,-0.040972965
4.9775,-0.052526517
4.978125,-0.034040834
4.97875,-0.020176572
4.979375,-0.022157181
4.98,-0.023477587
4.980625,-0.027108703
4.98125,-0.025788297
4.981875,-0.023477587
4.9825,-0.02875921
4.983125,-0.021166877
4.98375,-0.020506674
4.984375,-0.016545456
4.985,-0.020836775
4.985625,-0.028099007
4.98625,-0.024797993
4.986875,-0.011263832
4.9875,-0.012254137
4.988125,-0.031730124
4.98875,-0.050876009
4.989375,-0.050215806
4.99,-0.049225502
4.990625,-0.048235197
4.99125,-0.049225502
4.991875,-0.038992356
4.9925,-0.03536124
4.993125,-0.031400022
4.99375,-0.028099007
4.994375,-0.032060225
4.995,-0.031730124
4.995625,-0.027768906
4.99625,-0.018195963
4.996875,-0.020836775
4.9975,-0.025458196
4.998125,-0.022157181
4.99875,-0.015885253
4.999375,-0.019846471